title:6, start timestamp:1614561296.993370, stop timestamp:1614561342.727396, headset type:EPOCFLEX, headset serial:F00001ED, headset firmware:f12, subject name:s15, channels:75, sampling rate:128, samples:5902      , version:2.0
Timestamp,EEG.Counter,EEG.Interpolated,EEG.Cz,EEG.Fz,EEG.Fp1,EEG.F7,EEG.F3,EEG.FC1,EEG.C3,EEG.FC5,EEG.FT9,EEG.T7,EEG.TP9,EEG.CP5,EEG.CP1,EEG.P3,EEG.P7,EEG.O1,EEG.Pz,EEG.Oz,EEG.O2,EEG.P8,EEG.P4,EEG.CP2,EEG.CP6,EEG.TP10,EEG.T8,EEG.FT10,EEG.FC6,EEG.C4,EEG.FC2,EEG.F4,EEG.F8,EEG.Fp2,EEG.HighBitFlex,EEG.RawCq,EEG.Battery,MarkerIndex,MarkerType,MarkerValueInt,EEG.MarkerHardware,CQ.Cz,CQ.Fz,CQ.Fp1,CQ.F7,CQ.F3,CQ.FC1,CQ.C3,CQ.FC5,CQ.FT9,CQ.T7,CQ.TP9,CQ.CP5,CQ.CP1,CQ.P3,CQ.P7,CQ.O1,CQ.Pz,CQ.Oz,CQ.O2,CQ.P8,CQ.P4,CQ.CP2,CQ.CP6,CQ.TP10,CQ.T8,CQ.FT10,CQ.FC6,CQ.C4,CQ.FC2,CQ.F4,CQ.F8,CQ.Fp2,CQ.Overall
1614561296.993370,43.000000,0.000000,8.967262,-8.067897,-29.413593,7.068513,2.051603,7.857666,5.644907,2.169317,-7.608834,-3.355031,4.774002,5.706264,19.655748,4.002099,-3.626129,-13.584220,6.780172,-21.897923,-10.190847,-28.469313,-5.149732,-5.639986,-21.808962,-4.787665,-19.690985,-27.674269,-26.019693,-10.111562,-0.086884,-17.495701,-41.971642,-43.172264,8064.000000,0.000000,4.000000,,,,0.000000,4.000000,4.000000,4.000000,4.000000,4.000000,4.000000,4.000000,4.000000,4.000000,4.000000,4.000000,4.000000,4.000000,4.000000,4.000000,4.000000,4.000000,4.000000,4.000000,4.000000,4.000000,4.000000,4.000000,4.000000,4.000000,4.000000,4.000000,4.000000,4.000000,4.000000,4.000000,4.000000,100.000000
1614561297.001219,44.000000,0.000000,8.958295,-10.111112,-35.025204,-0.118042,1.536731,7.849808,4.613621,-3.473878,-14.267892,-5.915779,3.743587,1.085174,16.559168,2.972456,-2.596861,-7.929610,5.234930,-16.234999,5.716779,-17.158792,0.496443,1.545141,-7.941000,10.601738,-17.620012,-29.185057,-23.942390,-10.101450,-1.112438,-17.478205,-42.442490,-46.206017,8064.000000,0.000000,4.000000,,,,0.000000,4.000000,4.000000,4.000000,4.000000,4.000000,4.000000,4.000000,4.000000,4.000000,4.000000,4.000000,4.000000,4.000000,4.000000,4.000000,4.000000,4.000000,4.000000,4.000000,4.000000,4.000000,4.000000,4.000000,4.000000,4.000000,4.000000,4.000000,4.000000,4.000000,4.000000,4.000000,4.000000,100.000000
1614561297.008968,45.000000,0.000000,8.949336,-7.024077,-37.041462,0.907717,1.535194,7.841958,5.121828,-3.983225,-13.227983,-1.807299,6.816767,7.750755,13.978507,3.482304,9.713428,13.616781,5.742516,8.909442,19.557217,3.371187,3.572870,6.671802,1.297711,14.693701,-6.320341,-26.591768,-15.713321,-7.527246,-0.085685,-16.435085,-40.348766,-43.082886,8064.000000,0.000000,4.000000,,,,0.000000,4.000000,4.000000,4.000000,4.000000,4.000000,4.000000,4.000000,4.000000,4.000000,4.000000,4.000000,4.000000,4.000000,4.000000,4.000000,4.000000,4.000000,4.000000,4.000000,4.000000,4.000000,4.000000,4.000000,4.000000,4.000000,4.000000,4.000000,4.000000,4.000000,4.000000,4.000000,4.000000,100.000000
1614561297.016818,46.000000,0.000000,8.940387,-7.017053,-19.055702,13.727322,3.072121,7.321295,5.629527,1.661784,-7.060909,2.809893,15.015079,15.948133,14.990170,3.478822,22.524227,30.013420,7.275235,31.464636,33.896633,12.598585,6.646220,6.152309,-1.267689,14.166186,3.942390,-18.872869,-7.492479,-4.442796,3.504144,-16.418650,-28.000725,-26.116728,8064.000000,0.000000,4.000000,,,,0.000000,4.000000,4.000000,4.000000,4.000000,4.000000,4.000000,4.000000,4.000000,4.000000,4.000000,4.000000,4.000000,4.000000,4.000000,4.000000,4.000000,4.000000,4.000000,4.000000,4.000000,4.000000,4.000000,4.000000,4.000000,4.000000,4.000000,4.000000,4.000000,4.000000,4.000000,4.000000,4.000000,100.000000
1614561297.024567,47.000000,0.000000,8.931447,-3.933113,6.604379,25.508467,4.607510,7.826795,4.598256,3.711405,5.766665,7.422468,7.820576,14.906544,13.436718,1.424061,24.552984,23.829561,2.139754,33.997272,35.914021,11.560346,6.126753,5.633336,-1.266422,12.613559,3.938447,-8.597586,-1.843961,-2.899892,2.474999,-11.274026,-13.613750,-9.680354,8064.000000,0.000000,4.000000,,,,0.000000,4.000000,4.000000,4.000000,4.000000,4.000000,4.000000,4.000000,4.000000,4.000000,4.000000,4.000000,4.000000,4.000000,4.000000,4.000000,4.000000,4.000000,4.000000,4.000000,4.000000,4.000000,4.000000,4.000000,4.000000,4.000000,4.000000,4.000000,4.000000,4.000000,4.000000,4.000000,4.000000,100.000000
1614561297.032416,48.000000,0.000000,8.922515,8.378512,14.802902,31.123983,6.654185,9.870250,4.593658,2.682052,17.555771,16.645815,-2.956475,15.917278,8.295076,-1.141466,21.964329,15.600603,-10.682899,31.911993,34.339642,17.189812,5.094985,6.140523,4.375870,10.549663,5.472970,-1.409501,4.824550,-2.896992,4.010986,1.557761,-10.523212,-3.516828,8064.000000,0.000000,4.000000,,,,0.000000,4.000000,4.000000,4.000000,4.000000,4.000000,4.000000,4.000000,4.000000,4.000000,4.000000,4.000000,4.000000,4.000000,4.000000,4.000000,4.000000,4.000000,4.000000,4.000000,4.000000,4.000000,4.000000,4.000000,4.000000,4.000000,4.000000,4.000000,4.000000,4.000000,4.000000,4.000000,4.000000,100.000000
1614561297.040165,49.000000,0.000000,8.913592,17.600903,11.198356,35.708244,11.775736,11.398841,8.691628,9.346037,20.102318,24.834297,0.123404,21.029566,5.209858,-1.653145,23.993647,18.149105,-13.749139,34.957005,35.843765,23.326468,6.115531,5.621562,6.935597,9.513473,13.159805,2.694473,9.947930,-2.894095,13.750565,10.274152,-12.563972,-4.538952,8064.000000,0.000000,4.000000,,,,0.000000,4.000000,4.000000,4.000000,4.000000,4.000000,4.000000,4.000000,4.000000,4.000000,4.000000,4.000000,4.000000,4.000000,4.000000,4.000000,4.000000,4.000000,4.000000,4.000000,4.000000,4.000000,4.000000,4.000000,4.000000,4.000000,4.000000,4.000000,4.000000,4.000000,4.000000,4.000000,4.000000,100.000000
1614561297.048015,50.000000,0.000000,8.904679,17.070482,13.238440,38.749458,16.379345,11.387443,12.785501,18.054640,19.056574,24.809462,3.200204,23.059818,6.743110,-0.625851,23.969654,14.541213,-7.581543,27.742561,24.013050,19.713398,4.570954,5.615941,6.415841,8.478317,15.197927,5.255881,9.937983,-2.378380,16.300917,10.263878,-11.012946,-1.457490,8064.000000,0.000000,4.000000,,,,0.000000,4.000000,4.000000,4.000000,4.000000,4.000000,4.000000,4.000000,4.000000,4.000000,4.000000,4.000000,4.000000,4.000000,4.000000,4.000000,4.000000,4.000000,4.000000,4.000000,4.000000,4.000000,4.000000,4.000000,4.000000,4.000000,4.000000,4.000000,4.000000,4.000000,4.000000,4.000000,4.000000,100.000000
1614561297.055764,51.000000,0.000000,8.895774,15.514950,14.763663,38.710709,16.875786,11.376055,12.772716,19.575047,20.063158,24.271832,-2.444022,22.011118,6.223546,-1.138045,15.740556,-1.883585,-6.548320,11.304562,5.014678,8.924453,1.489460,5.097504,5.896605,3.854455,12.105806,5.250625,9.415224,-2.888822,9.105128,8.715152,-10.489112,5.210634,8064.000000,0.000000,4.000000,,,,0.000000,4.000000,4.000000,4.000000,4.000000,4.000000,4.000000,4.000000,4.000000,4.000000,4.000000,4.000000,4.000000,4.000000,4.000000,4.000000,4.000000,4.000000,4.000000,4.000000,4.000000,4.000000,4.000000,4.000000,4.000000,4.000000,4.000000,4.000000,4.000000,4.000000,4.000000,4.000000,4.000000,100.000000
1614561297.063613,52.000000,0.000000,8.886879,17.550716,7.569412,36.620716,16.346088,11.364679,12.247122,18.017010,19.017454,25.273201,-2.954399,21.989107,7.242963,-1.136907,8.032507,-12.650932,-4.490490,4.113770,-3.195466,-1.340881,0.975150,5.605227,6.403529,0.773677,11.580880,4.219733,9.405808,-2.373113,8.583202,10.244899,-12.017085,1.615680,8064.000000,0.000000,4.000000,,,,0.000000,4.000000,4.000000,4.000000,4.000000,4.000000,4.000000,4.000000,4.000000,4.000000,4.000000,4.000000,4.000000,4.000000,4.000000,4.000000,4.000000,4.000000,4.000000,4.000000,4.000000,4.000000,4.000000,4.000000,4.000000,4.000000,4.000000,4.000000,4.000000,4.000000,4.000000,4.000000,4.000000,100.000000
1614561297.071363,53.000000,0.000000,8.877992,16.507524,-0.130465,37.096916,16.329742,11.353314,12.234875,17.998993,17.972795,20.119722,-0.387342,21.967117,12.876746,3.479614,5.973193,-11.099820,5.257590,4.622477,-10.371758,-4.929284,1.486996,7.650904,6.397125,1.285724,8.492376,4.728334,9.396402,-0.319458,10.625901,9.209013,-11.492248,-10.693628,8064.000000,0.000000,4.000000,,,,0.000000,4.000000,4.000000,4.000000,4.000000,4.000000,4.000000,4.000000,4.000000,4.000000,4.000000,4.000000,4.000000,4.000000,4.000000,4.000000,4.000000,4.000000,4.000000,4.000000,4.000000,4.000000,4.000000,4.000000,4.000000,4.000000,4.000000,4.000000,4.000000,4.000000,4.000000,4.000000,4.000000,100.000000
1614561297.079012,54.000000,0.000000,8.869114,11.875633,1.408127,37.572639,16.313414,11.341961,12.222640,19.006634,20.006105,15.997040,0.125866,21.945150,18.504894,9.629981,7.505681,-10.063079,10.893358,2.566572,-20.104975,-5.437175,0.972688,9.694535,5.365087,-0.766844,2.842858,1.133862,4.771622,1.219323,5.487071,3.045957,-12.506396,-15.811139,8064.000000,0.000000,4.000000,,,,0.000000,4.000000,4.000000,4.000000,4.000000,4.000000,4.000000,4.000000,4.000000,4.000000,4.000000,4.000000,4.000000,4.000000,4.000000,4.000000,4.000000,4.000000,4.000000,4.000000,4.000000,4.000000,4.000000,4.000000,4.000000,4.000000,4.000000,4.000000,4.000000,4.000000,4.000000,4.000000,4.000000,100.000000
1614561297.086761,55.000000,0.000000,9.373065,8.274014,-2.183025,30.355579,16.297100,11.330619,12.723238,17.961987,12.293791,17.006683,0.125740,21.923204,18.999210,11.671633,7.498176,-11.591477,9.856824,1.025544,-17.007948,-6.457379,1.484536,9.684841,5.872542,-2.304538,0.275913,-6.559579,-5.489560,1.218104,1.891840,-1.572473,-21.211838,-17.333790,8064.000000,0.000000,4.000000,,,,0.000000,4.000000,4.000000,4.000000,4.000000,4.000000,4.000000,4.000000,4.000000,4.000000,4.000000,4.000000,4.000000,4.000000,4.000000,4.000000,4.000000,4.000000,4.000000,4.000000,4.000000,4.000000,4.000000,4.000000,4.000000,4.000000,4.000000,4.000000,4.000000,4.000000,4.000000,4.000000,4.000000,100.000000
1614561297.094411,56.000000,0.000000,9.363692,8.265739,-12.437252,20.068815,15.767982,11.319288,11.684874,11.277358,-0.026195,12.374292,-0.387206,19.850000,13.852006,9.095859,6.465036,-7.990142,9.846967,3.588621,-0.580683,-2.861178,4.047154,9.675156,6.379490,2.825971,-0.750004,-11.168405,-13.689198,1.216886,3.428410,-2.596542,-31.959858,-27.060045,8064.000000,0.000000,4.000000,,,,0.000000,4.000000,4.000000,4.000000,4.000000,4.000000,4.000000,4.000000,4.000000,4.000000,4.000000,4.000000,4.000000,4.000000,4.000000,4.000000,4.000000,4.000000,4.000000,4.000000,4.000000,4.000000,4.000000,4.000000,4.000000,4.000000,4.000000,4.000000,4.000000,4.000000,4.000000,4.000000,4.000000,100.000000
1614561297.102160,57.000000,0.000000,8.328688,8.770294,-4.219687,22.100027,16.777855,10.795149,9.109086,5.625055,4.589216,5.695251,0.126002,17.778868,7.684308,7.035481,7.997033,1.761438,9.324300,9.226058,13.778872,5.859632,5.581568,9.152660,3.296188,11.028274,-3.313357,-11.157236,-14.188330,0.702848,3.424981,-2.081125,-35.004822,-29.597088,8064.000000,0.000000,4.000000,,,,0.000000,4.000000,4.000000,4.000000,4.000000,4.000000,4.000000,4.000000,4.000000,4.000000,4.000000,4.000000,4.000000,4.000000,4.000000,4.000000,4.000000,4.000000,4.000000,4.000000,4.000000,4.000000,4.000000,4.000000,4.000000,4.000000,4.000000,4.000000,4.000000,4.000000,4.000000,4.000000,4.000000,100.000000
1614561297.109809,58.000000,0.000000,9.346000,8.248704,13.220430,34.898441,18.812359,11.297174,8.074336,7.157892,17.917959,10.817761,7.305363,19.299551,5.625342,9.592548,18.758266,16.118650,9.827796,16.909140,27.098427,12.520438,5.063166,9.656328,2.780071,19.222374,-4.335685,-11.146079,-13.148500,1.214966,2.908736,-2.591864,-33.944176,-19.823902,8064.000000,0.000000,4.000000,,,,0.000000,4.000000,4.000000,4.000000,4.000000,4.000000,4.000000,4.000000,4.000000,4.000000,4.000000,4.000000,4.000000,4.000000,4.000000,4.000000,4.000000,4.000000,4.000000,4.000000,4.000000,4.000000,4.000000,4.000000,4.000000,4.000000,4.000000,4.000000,4.000000,4.000000,4.000000,4.000000,4.000000,100.000000
1614561297.117559,59.000000,0.000000,9.849474,8.240455,11.155928,41.017387,20.332008,11.798697,8.579082,10.740478,17.387220,20.037712,16.016006,21.844353,7.670999,13.685519,32.585663,27.384583,9.305147,23.558897,37.840561,16.097662,5.058103,9.133851,6.879855,25.356997,-3.305708,-11.134933,-13.648172,1.213751,3.418648,-2.589272,-34.423050,-16.214334,8064.000000,0.000000,4.000000,,,,0.000000,4.000000,4.000000,4.000000,4.000000,4.000000,4.000000,4.000000,4.000000,4.000000,4.000000,4.000000,4.000000,4.000000,4.000000,4.000000,4.000000,4.000000,4.000000,4.000000,4.000000,4.000000,4.000000,4.000000,4.000000,4.000000,4.000000,4.000000,4.000000,4.000000,4.000000,4.000000,4.000000,100.000000
1614561297.125208,60.000000,0.000000,4.198599,8.745035,6.016567,39.950729,19.798857,8.197155,8.570503,13.293839,13.780090,20.530495,15.999990,22.335329,5.612045,13.671834,34.604359,29.408482,-0.447748,26.099442,37.802719,19.158487,6.078686,2.970871,10.462719,23.280357,-3.302402,-8.559695,-14.147346,-2.890027,3.415229,-2.073862,-34.388626,-13.634017,8064.000000,0.000000,4.000000,,,,0.000000,4.000000,4.000000,4.000000,4.000000,4.000000,4.000000,4.000000,4.000000,4.000000,4.000000,4.000000,4.000000,4.000000,4.000000,4.000000,4.000000,4.000000,4.000000,4.000000,4.000000,4.000000,4.000000,4.000000,4.000000,4.000000,4.000000,4.000000,4.000000,4.000000,4.000000,4.000000,4.000000,100.000000
1614561297.132958,61.000000,0.000000,-1.959446,8.736290,15.754140,41.962063,19.779057,4.086394,8.561933,16.357470,19.920156,19.997145,10.855785,22.312994,0.991049,7.504316,30.467190,23.225225,-12.242171,24.534880,31.098249,17.600866,5.046967,-4.211587,9.426615,14.539129,-2.786279,-6.499854,-13.107556,-6.476881,3.411814,-2.071789,-32.815777,-6.953716,8064.000000,0.000000,4.000000,,,,0.000000,4.000000,4.000000,4.000000,4.000000,4.000000,4.000000,4.000000,4.000000,4.000000,4.000000,4.000000,4.000000,4.000000,4.000000,4.000000,4.000000,4.000000,4.000000,4.000000,4.000000,4.000000,4.000000,4.000000,4.000000,4.000000,4.000000,4.000000,4.000000,4.000000,4.000000,4.000000,4.000000,100.000000
1614561297.140607,62.000000,0.000000,-2.983127,8.727553,17.276848,45.509842,20.272099,3.569487,9.066192,17.879574,23.489981,20.489967,6.742365,21.777861,-1.061224,2.881427,31.462364,20.637897,-14.281212,25.535986,31.579971,18.608908,5.041919,-5.745837,9.930009,12.986129,-0.732211,-6.493353,-10.530347,-4.931942,3.408402,-2.069717,-34.834244,-12.587789,8064.000000,0.000000,4.000000,,,,0.000000,4.000000,4.000000,4.000000,4.000000,4.000000,4.000000,4.000000,4.000000,4.000000,4.000000,4.000000,4.000000,4.000000,4.000000,4.000000,4.000000,4.000000,4.000000,4.000000,4.000000,4.000000,4.000000,4.000000,4.000000,4.000000,4.000000,4.000000,4.000000,4.000000,4.000000,4.000000,4.000000,100.000000
1614561297.148356,63.000000,0.000000,-1.954503,8.718826,11.618546,44.438690,19.739006,3.565917,8.544305,18.887335,22.953669,20.469479,4.171520,22.781723,-1.060163,3.391366,27.328337,19.591619,-12.728469,26.536091,25.394545,19.103119,6.062519,-2.663168,10.432899,14.511603,0.294162,-6.999681,-8.981355,-2.362907,3.404994,-2.067647,-36.850693,-18.216227,8064.000000,0.000000,4.000000,,,,0.000000,4.000000,4.000000,4.000000,4.000000,4.000000,4.000000,4.000000,4.000000,4.000000,4.000000,4.000000,4.000000,4.000000,4.000000,4.000000,4.000000,4.000000,4.000000,4.000000,4.000000,4.000000,4.000000,4.000000,4.000000,4.000000,4.000000,4.000000,4.000000,4.000000,4.000000,4.000000,4.000000,100.000000
1614561297.156006,64.000000,0.000000,-2.465369,8.710108,18.273594,43.881432,19.719267,5.100813,8.535760,20.919729,24.469177,20.961828,1.090426,22.246122,-0.546283,2.875154,12.942035,2.136130,-13.228560,14.714684,-1.810336,6.263503,2.979533,-1.634864,9.396826,1.163759,2.345150,-6.479860,-8.972373,-2.873365,3.401588,-2.065579,-33.224098,-3.326215,0.000000,199.000000,4.000000,,,,0.000000,4.000000,4.000000,4.000000,4.000000,4.000000,4.000000,4.000000,4.000000,4.000000,4.000000,4.000000,4.000000,4.000000,4.000000,4.000000,4.000000,4.000000,4.000000,4.000000,4.000000,4.000000,4.000000,4.000000,4.000000,4.000000,4.000000,4.000000,4.000000,4.000000,4.000000,4.000000,4.000000,100.000000
1614561297.163755,65.000000,0.000000,-2.462904,8.701397,20.819422,44.350372,20.212368,9.198277,9.040045,22.437271,26.495991,17.863943,-10.192716,13.505927,-1.058557,-5.332849,-1.429882,-24.532673,-13.215332,-8.376955,-26.936731,-9.127376,-4.202934,-2.146049,10.925890,-19.350225,-0.734118,-5.960560,-8.963401,-2.870492,3.398187,-2.063514,-33.190872,2.318137,0.000000,164.000000,4.000000,,,,0.000000,4.000000,4.000000,4.000000,4.000000,4.000000,4.000000,4.000000,4.000000,4.000000,4.000000,4.000000,4.000000,4.000000,4.000000,4.000000,4.000000,4.000000,4.000000,4.000000,4.000000,4.000000,4.000000,4.000000,4.000000,4.000000,4.000000,4.000000,4.000000,4.000000,4.000000,4.000000,4.000000,100.000000
1614561297.171404,66.000000,0.000000,-1.947620,9.205517,11.055013,40.716278,17.115232,12.778822,5.441261,21.902014,24.418213,11.179413,-25.054317,1.697549,-0.544678,-14.558286,-6.556657,-36.303013,-14.227757,-21.189091,-32.037998,-12.707993,-6.762834,-1.631083,8.863683,-25.997541,-9.451333,-6.980241,-9.980079,-2.867621,3.394789,-2.061450,-43.926914,-19.222643,0.000000,196.000000,4.000000,,,,0.000000,4.000000,4.000000,4.000000,4.000000,4.000000,4.000000,4.000000,4.000000,4.000000,4.000000,4.000000,4.000000,4.000000,4.000000,4.000000,4.000000,4.000000,4.000000,4.000000,4.000000,4.000000,4.000000,4.000000,4.000000,4.000000,4.000000,4.000000,4.000000,4.000000,4.000000,4.000000,4.000000,100.000000
1614561297.179154,67.000000,0.000000,-1.945673,8.683491,0.787548,32.470432,12.482734,10.714761,1.333256,16.239086,19.265589,8.091311,-25.542084,-1.381071,-0.544133,-16.082190,-8.088562,-31.651323,-12.162248,-21.167902,-30.467501,-14.233746,-5.730430,-1.629452,-1.914412,-23.920261,-15.082907,-10.563004,-12.534201,-2.864754,3.904214,-1.546568,-52.600937,-35.613678,0.000000,197.000000,4.000000,,,,0.000000,4.000000,4.000000,4.000000,4.000000,4.000000,4.000000,4.000000,4.000000,4.000000,4.000000,4.000000,4.000000,4.000000,4.000000,4.000000,4.000000,4.000000,4.000000,4.000000,4.000000,4.000000,4.000000,4.000000,4.000000,4.000000,4.000000,4.000000,4.000000,4.000000,4.000000,4.000000,4.000000,100.000000
1614561297.186803,68.000000,0.000000,-2.456547,6.110704,-8.956829,23.720015,11.444610,6.601482,0.819102,9.043359,12.066836,8.596040,-16.285772,-0.354049,-0.543589,-11.963543,-7.567653,-27.004288,-5.483419,-20.121092,-31.462673,-21.398998,-5.724699,-1.627822,-10.117626,-24.921984,-14.042183,-10.039620,-14.060128,-2.349068,2.361849,-2.057842,-52.548336,-34.552422,0.000000,200.000000,4.000000,,,,0.000000,4.000000,4.000000,4.000000,4.000000,4.000000,4.000000,4.000000,4.000000,4.000000,4.000000,4.000000,4.000000,4.000000,4.000000,4.000000,4.000000,4.000000,4.000000,4.000000,4.000000,4.000000,4.000000,4.000000,4.000000,4.000000,4.000000,4.000000,4.000000,4.000000,4.000000,4.000000,4.000000,100.000000
1614561297.194652,69.000000,0.000000,-1.941271,4.566132,-8.947873,21.645012,12.458806,4.030778,1.331104,5.957393,7.439384,9.100265,-16.269487,0.159125,-0.543045,-11.951579,-8.072906,-25.438822,-7.529218,-20.613792,-29.892750,-23.941702,-6.231795,-1.113374,-9.081867,-24.384241,-16.592243,-10.029581,-14.046068,-4.398001,-0.204616,-3.594246,-50.957325,-31.440947,0.000000,157.000000,4.000000,,,,0.000000,4.000000,4.000000,4.000000,4.000000,4.000000,4.000000,4.000000,4.000000,4.000000,4.000000,4.000000,4.000000,4.000000,4.000000,4.000000,4.000000,4.000000,4.000000,4.000000,4.000000,4.000000,4.000000,4.000000,4.000000,4.000000,4.000000,4.000000,4.000000,4.000000,4.000000,4.000000,4.000000,100.000000
1614561297.202402,70.000000,0.000000,0.624773,5.074387,-2.272258,26.751572,11.933527,4.026747,1.329772,6.977077,6.919125,8.578343,-18.304501,-0.866675,-0.542502,-11.426806,-7.552012,-23.874922,-12.649894,-20.593178,-26.785934,-23.404940,-5.712743,-2.137902,-8.047145,-19.744473,-24.267960,-19.250320,-16.083303,-9.521809,-0.717232,-5.641934,-54.496109,-33.973610,0.000000,180.000000,4.000000,,,,0.000000,4.000000,4.000000,4.000000,4.000000,4.000000,4.000000,4.000000,4.000000,4.000000,4.000000,4.000000,4.000000,4.000000,4.000000,4.000000,4.000000,4.000000,4.000000,4.000000,4.000000,4.000000,4.000000,4.000000,4.000000,4.000000,4.000000,4.000000,4.000000,4.000000,4.000000,4.000000,4.000000,100.000000
1614561297.210251,71.000000,0.000000,2.162610,5.069312,-11.500755,27.237640,11.921593,4.022720,3.379725,6.457279,5.886564,8.056945,-5.978503,-0.865808,-0.541960,-3.723072,-0.877793,-14.620277,-5.457757,-13.905918,-14.451455,-23.381535,-5.194210,-1.110123,-9.577559,-14.083701,-26.807793,-25.897738,-18.631323,-10.025107,-0.203694,-5.636292,-57.005718,-37.016556,0.000000,203.000000,4.000000,,,,0.000000,4.000000,4.000000,4.000000,4.000000,4.000000,4.000000,4.000000,4.000000,4.000000,4.000000,4.000000,4.000000,4.000000,4.000000,4.000000,4.000000,4.000000,4.000000,4.000000,4.000000,4.000000,4.000000,4.000000,4.000000,4.000000,4.000000,4.000000,4.000000,4.000000,4.000000,4.000000,4.000000,100.000000
1614561297.218000,72.000000,0.000000,2.160447,5.064243,-14.053357,27.723225,11.909672,3.505877,5.427627,5.938001,8.444780,10.612990,8.899270,2.211981,-0.541418,1.408856,9.379495,6.419983,3.778470,4.569526,6.588637,-12.588923,-1.599272,1.967911,-9.055161,-6.890131,-19.088678,-20.743633,-12.971666,-4.374056,-0.203490,-5.630656,-50.282043,-27.235950,0.000000,172.000000,4.000000,,,,0.000000,4.000000,4.000000,4.000000,4.000000,4.000000,4.000000,4.000000,4.000000,4.000000,4.000000,4.000000,4.000000,4.000000,4.000000,4.000000,4.000000,4.000000,4.000000,4.000000,4.000000,4.000000,4.000000,4.000000,4.000000,4.000000,4.000000,4.000000,4.000000,4.000000,4.000000,4.000000,4.000000,100.000000
1614561297.225849,73.000000,0.000000,2.158287,5.059178,9.037620,36.413448,12.410583,4.015192,4.909379,6.444883,13.564541,13.166480,9.403192,4.773871,-0.540876,-4.233579,13.472679,19.234076,1.210589,16.872648,13.761536,-0.268642,-0.572031,0.427481,-8.533285,-0.729394,-10.864461,-13.543403,-4.240746,-1.805580,-0.203287,-5.625025,-37.411251,-11.824100,0.000000,175.000000,4.000000,,,,0.000000,4.000000,4.000000,4.000000,4.000000,4.000000,4.000000,4.000000,4.000000,4.000000,4.000000,4.000000,4.000000,4.000000,4.000000,4.000000,4.000000,4.000000,4.000000,4.000000,4.000000,4.000000,4.000000,4.000000,4.000000,4.000000,4.000000,4.000000,4.000000,4.000000,4.000000,4.000000,4.000000,100.000000
1614561297.233599,74.000000,0.000000,1.130488,5.054119,8.515761,32.274471,11.885351,3.498356,4.904469,6.951259,13.038156,11.614852,-0.349801,0.666533,-0.540335,-11.408833,9.869463,8.445612,-5.457288,8.650648,1.952902,-2.319655,-5.699664,-4.188331,-7.499111,-1.754306,-8.802315,-14.042680,-4.236506,-3.342236,-0.203083,-5.619400,-36.861019,-17.966122,0.000000,196.000000,4.000000,,,,0.000000,4.000000,4.000000,4.000000,4.000000,4.000000,4.000000,4.000000,4.000000,4.000000,4.000000,4.000000,4.000000,4.000000,4.000000,4.000000,4.000000,4.000000,4.000000,4.000000,4.000000,4.000000,4.000000,4.000000,4.000000,4.000000,4.000000,4.000000,4.000000,4.000000,4.000000,4.000000,4.000000,100.000000
1614561297.241448,75.000000,0.000000,-1.947566,5.049065,-12.518395,18.396044,11.873466,4.007678,4.899565,5.918667,11.486656,10.064775,-6.503298,-2.411056,-0.539795,-11.397424,8.833952,-7.460270,-5.964651,-2.127233,-5.228538,-7.445541,-8.258067,-5.209784,-8.004432,-3.803834,-10.844794,-15.054278,-11.411757,-2.826073,-0.202880,-5.613780,-45.029285,-30.255848,0.000000,201.000000,4.000000,,,,0.000000,4.000000,4.000000,4.000000,4.000000,4.000000,4.000000,4.000000,4.000000,4.000000,4.000000,4.000000,4.000000,4.000000,4.000000,4.000000,4.000000,4.000000,4.000000,4.000000,4.000000,4.000000,4.000000,4.000000,4.000000,4.000000,4.000000,4.000000,4.000000,4.000000,4.000000,4.000000,4.000000,100.000000
1614561297.249197,76.000000,0.000000,-1.945618,5.044016,2.878738,29.659698,13.912874,6.567773,4.894666,7.964030,16.090553,13.644454,-5.983974,1.693919,-0.539255,-10.873205,11.389221,-8.478451,-3.907404,-2.637927,-6.248950,-6.925275,-8.249809,-5.204574,-8.509248,-4.312850,-9.295488,-11.962301,-13.451627,-1.797606,-0.202677,-5.608167,-44.984257,-15.866618,0.000000,180.000000,4.000000,,,,0.000000,4.000000,4.000000,4.000000,4.000000,4.000000,4.000000,4.000000,4.000000,4.000000,4.000000,4.000000,4.000000,4.000000,4.000000,4.000000,4.000000,4.000000,4.000000,4.000000,4.000000,4.000000,4.000000,4.000000,4.000000,4.000000,4.000000,4.000000,4.000000,4.000000,4.000000,4.000000,4.000000,100.000000
1614561297.257047,77.000000,0.000000,-1.943673,5.038972,22.363039,47.065937,15.950244,8.099667,4.889771,12.571451,18.638567,17.220554,-10.593374,4.769148,-0.538716,-11.887973,9.839371,-11.034075,-7.493241,-11.866058,-19.576035,-13.585016,-16.959509,-7.763472,-6.962277,-14.564948,-9.286193,-7.334954,-12.412534,-3.334270,-0.202475,-5.602559,-39.811066,1.072326,0.000000,199.000000,4.000000,,,,0.000000,4.000000,4.000000,4.000000,4.000000,4.000000,4.000000,4.000000,4.000000,4.000000,4.000000,4.000000,4.000000,4.000000,4.000000,4.000000,4.000000,4.000000,4.000000,4.000000,4.000000,4.000000,4.000000,4.000000,4.000000,4.000000,4.000000,4.000000,4.000000,4.000000,4.000000,4.000000,4.000000,100.000000
1614561297.264796,78.000000,0.000000,-5.018652,5.033933,5.417599,36.762459,15.934294,7.578746,4.884881,14.610162,18.107107,16.177692,-21.352013,3.738738,-1.050998,-12.388906,4.701326,-24.869194,-17.229338,-30.828550,-39.043636,-24.340662,-28.224600,-9.294169,-8.493776,-28.396536,-14.405111,-5.789158,-12.912942,-6.407859,-0.202272,-5.596956,-41.309715,-6.621055,0.000000,172.000000,4.000000,,,,0.000000,4.000000,4.000000,4.000000,4.000000,4.000000,4.000000,4.000000,4.000000,4.000000,4.000000,4.000000,4.000000,4.000000,4.000000,4.000000,4.000000,4.000000,4.000000,4.000000,4.000000,4.000000,4.000000,4.000000,4.000000,4.000000,4.000000,4.000000,4.000000,4.000000,4.000000,4.000000,4.000000,100.000000
1614561297.272645,79.000000,0.000000,-4.500813,5.028899,-0.741665,28.520569,15.918359,7.571168,4.879996,14.082731,21.165922,15.648694,-25.946045,3.222178,-0.537126,-11.863696,2.645342,-32.536633,-20.801851,-40.028492,-50.286644,-28.931705,-29.222015,-8.772056,-17.716053,-33.496346,-20.544552,-6.809010,-13.412849,-6.914271,-0.202070,-5.591359,-43.832508,-10.716997,0.000000,165.000000,4.000000,,,,0.000000,4.000000,4.000000,4.000000,4.000000,4.000000,4.000000,4.000000,4.000000,4.000000,4.000000,4.000000,4.000000,4.000000,4.000000,4.000000,4.000000,4.000000,4.000000,4.000000,4.000000,4.000000,4.000000,4.000000,4.000000,4.000000,4.000000,4.000000,4.000000,4.000000,4.000000,4.000000,4.000000,100.000000
1614561297.280394,80.000000,0.000000,0.119073,5.536691,13.618052,37.722816,15.902441,7.563597,4.875116,14.068648,20.631937,16.145866,-27.971380,3.218956,-0.536589,-12.364654,2.642697,-34.042557,-18.729767,-41.014103,-53.826103,-30.441236,-27.654333,-8.763283,-23.852182,-32.437206,-22.575291,-6.802201,-12.886616,-5.881716,-0.201868,-5.585768,-44.814320,-8.142178,0.000000,204.000000,4.000000,,,,0.000000,4.000000,4.000000,4.000000,4.000000,4.000000,4.000000,4.000000,4.000000,4.000000,4.000000,4.000000,4.000000,4.000000,4.000000,4.000000,4.000000,4.000000,4.000000,4.000000,4.000000,4.000000,4.000000,4.000000,4.000000,4.000000,4.000000,4.000000,4.000000,4.000000,4.000000,4.000000,4.000000,100.000000
1614561297.288244,81.000000,0.000000,1.657415,3.479872,5.912126,34.095352,15.886539,7.556033,4.357420,14.054580,12.918997,16.129719,-25.892126,3.728558,-1.561694,-11.326648,3.665695,-33.495693,-18.198217,-36.357704,-47.618431,-29.385153,-28.652319,-8.241699,-23.828331,-30.353489,-21.014254,-6.282578,-12.873730,-6.901475,-0.201666,-5.580182,-48.872066,-17.877626,0.000000,198.000000,4.000000,,,,0.000000,4.000000,4.000000,4.000000,4.000000,4.000000,4.000000,4.000000,4.000000,4.000000,4.000000,4.000000,4.000000,4.000000,4.000000,4.000000,4.000000,4.000000,4.000000,4.000000,4.000000,4.000000,4.000000,4.000000,4.000000,4.000000,4.000000,4.000000,4.000000,4.000000,4.000000,4.000000,4.000000,100.000000
1614561297.295993,82.000000,0.000000,3.194219,1.425110,-7.939940,26.368948,15.870652,7.548477,4.865884,14.040524,9.316335,16.113590,-10.994440,6.288932,1.516791,-7.725577,6.226132,-21.154507,-11.513352,-18.885450,-27.057991,-22.689102,-22.982641,-5.669355,-24.317322,-21.605186,-20.993238,-6.789116,-12.860856,-6.381753,-0.201464,-5.574602,-50.874477,-25.039234,0.000000,169.000000,4.000000,,,,0.000000,4.000000,4.000000,4.000000,4.000000,4.000000,4.000000,4.000000,4.000000,4.000000,4.000000,4.000000,4.000000,4.000000,4.000000,4.000000,4.000000,4.000000,4.000000,4.000000,4.000000,4.000000,4.000000,4.000000,4.000000,4.000000,4.000000,4.000000,4.000000,4.000000,4.000000,4.000000,4.000000,100.000000
1614561297.303642,83.000000,0.000000,7.806409,0.910865,-2.290975,30.445145,15.854781,7.540928,7.425120,14.026484,10.845479,15.071836,1.837067,6.795464,7.669120,-2.589647,5.707086,-6.261558,1.318674,-3.994770,-4.466831,-9.845900,-9.626326,-4.638045,-19.677620,-5.686145,-22.510708,-6.782327,-12.847995,-1.759987,-0.201263,-5.569027,-49.797962,-17.321888,0.000000,198.000000,4.000000,,,,0.000000,4.000000,4.000000,4.000000,4.000000,4.000000,4.000000,4.000000,4.000000,4.000000,4.000000,4.000000,4.000000,4.000000,4.000000,4.000000,4.000000,4.000000,4.000000,4.000000,4.000000,4.000000,4.000000,4.000000,4.000000,4.000000,4.000000,4.000000,4.000000,4.000000,4.000000,4.000000,4.000000,100.000000
1614561297.311392,84.000000,0.000000,9.849885,1.422774,2.839521,32.465981,15.838926,7.533388,8.956157,13.499638,10.834634,16.082405,4.912153,8.839950,10.738375,4.079610,11.855225,0.924191,5.419919,4.727174,11.947892,6.061382,2.178173,-5.146227,-6.324609,9.704156,-18.898453,-6.262724,-12.835147,1.831517,-0.201062,-5.563458,-46.671242,-14.740463,0.000000,203.000000,4.000000,,,,0.000000,4.000000,4.000000,4.000000,4.000000,4.000000,4.000000,4.000000,4.000000,4.000000,4.000000,4.000000,4.000000,4.000000,4.000000,4.000000,4.000000,4.000000,4.000000,4.000000,4.000000,4.000000,4.000000,4.000000,4.000000,4.000000,4.000000,4.000000,4.000000,4.000000,4.000000,4.000000,4.000000,100.000000
1614561297.319041,85.000000,0.000000,8.814394,1.421351,0.785400,30.895054,15.823088,8.038674,8.434381,13.998959,10.310979,21.194527,18.240574,16.523418,10.214815,10.742197,29.279266,16.307882,8.491423,24.209625,24.756456,15.286090,10.381123,-5.141081,-0.164439,21.489325,-7.597503,-6.256461,-10.771029,1.316865,0.311960,-5.045074,-37.393803,-18.828287,0.000000,204.000000,4.000000,,,,0.000000,4.000000,4.000000,4.000000,4.000000,4.000000,4.000000,4.000000,4.000000,4.000000,4.000000,4.000000,4.000000,4.000000,4.000000,4.000000,4.000000,4.000000,4.000000,4.000000,4.000000,4.000000,4.000000,4.000000,4.000000,4.000000,4.000000,4.000000,4.000000,4.000000,4.000000,4.000000,4.000000,100.000000
1614561297.326790,86.000000,0.000000,8.805580,1.419930,2.835896,34.453903,15.807264,7.004995,8.425946,16.549063,12.864771,23.224615,35.145412,22.147921,10.204600,14.321198,40.532040,36.804394,20.277803,41.621315,29.347086,15.783625,13.447664,-4.623119,1.374187,25.057577,-0.923239,-6.763025,-8.708977,0.802727,-0.201173,-5.040029,-28.638458,-14.194075,0.000000,201.000000,4.000000,,,,0.000000,4.000000,4.000000,4.000000,4.000000,4.000000,4.000000,4.000000,4.000000,4.000000,4.000000,4.000000,4.000000,4.000000,4.000000,4.000000,4.000000,4.000000,4.000000,4.000000,4.000000,4.000000,4.000000,4.000000,4.000000,4.000000,4.000000,4.000000,4.000000,4.000000,4.000000,4.000000,4.000000,100.000000
1614561297.334440,87.000000,0.000000,9.309595,1.418510,5.397163,34.419449,15.791457,4.433887,8.417520,18.070974,14.903188,23.201389,35.110264,22.125772,10.707216,15.332518,42.029968,41.382977,25.898550,41.579693,28.292097,15.767840,12.408576,-5.131317,5.988198,25.032520,-2.973598,-5.730621,-9.213088,1.314745,-0.200971,-5.547810,-27.584179,-6.487573,0.000000,205.000000,4.000000,,,,0.000000,4.000000,4.000000,4.000000,4.000000,4.000000,4.000000,4.000000,4.000000,4.000000,4.000000,4.000000,4.000000,4.000000,4.000000,4.000000,4.000000,4.000000,4.000000,4.000000,4.000000,4.000000,4.000000,4.000000,4.000000,4.000000,4.000000,4.000000,4.000000,4.000000,4.000000,4.000000,4.000000,100.000000
1614561297.342189,88.000000,0.000000,8.787465,1.929912,5.391766,33.359386,15.775665,3.403812,8.409102,17.540083,14.888285,26.255112,35.587975,22.616467,10.696509,17.368467,44.552040,39.290310,24.334190,41.025291,28.263805,14.726432,10.344885,-5.126185,7.007851,26.545950,-1.944983,-6.750532,-8.178234,0.287789,0.312050,-5.029441,-28.069416,-7.506726,0.000000,196.000000,4.000000,,,,0.000000,4.000000,4.000000,4.000000,4.000000,4.000000,4.000000,4.000000,4.000000,4.000000,4.000000,4.000000,4.000000,4.000000,4.000000,4.000000,4.000000,4.000000,4.000000,4.000000,4.000000,4.000000,4.000000,4.000000,4.000000,4.000000,4.000000,4.000000,4.000000,4.000000,4.000000,4.000000,4.000000,100.000000
1614561297.349839,89.000000,0.000000,8.778677,0.902341,2.309451,32.300388,16.785530,3.913229,8.400693,18.035364,13.334934,25.716036,37.603668,21.055389,10.172993,18.889561,42.969028,39.763840,24.822678,38.932983,21.056055,4.968116,5.719156,-5.121059,3.923920,18.827095,-2.455859,-14.436089,-9.195697,-2.789422,-2.252365,-5.024412,-30.092628,-15.704348,0.000000,206.000000,4.000000,,,,0.000000,4.000000,4.000000,4.000000,4.000000,4.000000,4.000000,4.000000,4.000000,4.000000,4.000000,4.000000,4.000000,4.000000,4.000000,4.000000,4.000000,4.000000,4.000000,4.000000,4.000000,4.000000,4.000000,4.000000,4.000000,4.000000,4.000000,4.000000,4.000000,4.000000,4.000000,4.000000,4.000000,100.000000
1614561297.357588,90.000000,0.000000,8.769898,-1.149843,-3.846704,23.037317,14.717463,3.909316,8.392293,16.478867,8.193395,19.023653,17.566067,18.470230,10.162819,15.280928,33.182468,22.288179,17.618366,16.329948,-6.657310,-6.831724,-5.055794,-5.115938,1.355893,-0.678911,-13.222633,-22.113960,-18.417271,-7.402017,-6.865497,-9.121951,-37.242023,-23.380951,0.000000,193.000000,4.000000,,,,0.000000,4.000000,4.000000,4.000000,4.000000,4.000000,4.000000,4.000000,4.000000,4.000000,4.000000,4.000000,4.000000,4.000000,4.000000,4.000000,4.000000,4.000000,4.000000,4.000000,4.000000,4.000000,4.000000,4.000000,4.000000,4.000000,4.000000,4.000000,4.000000,4.000000,4.000000,4.000000,4.000000,100.000000
1614561297.365237,91.000000,0.000000,8.761128,-2.687155,-7.432601,13.783511,12.138643,3.392586,8.896721,11.847003,3.569817,15.414886,-9.118167,18.964581,10.665477,6.547698,28.021082,-7.990520,2.728954,-12.917150,-34.855782,-12.978739,-13.255867,-5.110822,-6.337770,-15.037207,-20.388899,-22.091846,-23.527058,-10.471538,-7.884272,-13.215394,-40.281704,-19.767826,0.000000,200.000000,4.000000,,,,0.000000,4.000000,4.000000,4.000000,4.000000,4.000000,4.000000,4.000000,4.000000,4.000000,4.000000,4.000000,4.000000,4.000000,4.000000,4.000000,4.000000,4.000000,4.000000,4.000000,4.000000,4.000000,4.000000,4.000000,4.000000,4.000000,4.000000,4.000000,4.000000,4.000000,4.000000,4.000000,4.000000,100.000000
1614561297.372987,92.000000,0.000000,8.752367,-2.171647,-6.912348,15.821010,12.639325,4.414834,7.862183,9.271053,3.053426,16.425112,-17.826998,15.868693,9.116350,-3.715260,29.531521,-22.854324,-3.940442,-22.647823,-43.538872,-16.555504,-14.268251,-5.618532,-16.075022,-15.534989,-16.265945,-18.480011,-19.400967,-10.461066,-7.876388,-13.714999,-37.677319,-12.055751,0.000000,213.000000,4.000000,,,,0.000000,4.000000,4.000000,4.000000,4.000000,4.000000,4.000000,4.000000,4.000000,4.000000,4.000000,4.000000,4.000000,4.000000,4.000000,4.000000,4.000000,4.000000,4.000000,4.000000,4.000000,4.000000,4.000000,4.000000,4.000000,4.000000,4.000000,4.000000,4.000000,4.000000,4.000000,4.000000,4.000000,100.000000
1614561297.380636,93.000000,0.000000,8.743615,-2.169476,-6.905436,16.830830,10.062583,3.897599,5.290218,10.287423,3.563193,15.895866,-21.911734,6.622056,7.055952,-9.352571,28.476349,-24.882751,-2.398040,-20.573893,-39.392769,-16.538948,-13.741163,-5.100093,-17.597408,-12.955352,-12.659936,-18.461531,-16.304644,-11.476246,-6.842871,-12.675643,-37.126823,-17.684721,0.000000,196.000000,4.000000,,,,0.000000,4.000000,4.000000,4.000000,4.000000,4.000000,4.000000,4.000000,4.000000,4.000000,4.000000,4.000000,4.000000,4.000000,4.000000,4.000000,4.000000,4.000000,4.000000,4.000000,4.000000,4.000000,4.000000,4.000000,4.000000,4.000000,4.000000,4.000000,4.000000,4.000000,4.000000,4.000000,4.000000,100.000000
1614561297.388385,94.000000,0.000000,8.734872,-2.167306,-7.411351,13.224256,2.873034,1.329599,4.259287,10.277136,3.046810,16.392792,-27.018028,1.487228,6.023255,-8.830398,18.704283,-26.909151,-2.908462,-22.604601,-34.225174,-13.958306,-13.214602,-5.607813,-14.502889,-15.506499,-14.698558,-17.930248,-16.288338,-8.387847,-4.784746,-13.175788,-35.038414,-27.410625,0.000000,195.000000,4.000000,,,,0.000000,4.000000,4.000000,4.000000,4.000000,4.000000,4.000000,4.000000,4.000000,4.000000,4.000000,4.000000,4.000000,4.000000,4.000000,4.000000,4.000000,4.000000,4.000000,4.000000,4.000000,4.000000,4.000000,4.000000,4.000000,4.000000,4.000000,4.000000,4.000000,4.000000,4.000000,4.000000,4.000000,100.000000
1614561297.396035,95.000000,0.000000,8.726136,-2.165139,-6.891119,13.211031,0.306058,-0.210192,4.767848,9.754038,3.043763,15.350758,-22.375626,3.537023,6.530052,-9.334388,3.300963,-24.830959,-3.418374,-20.017893,-18.293510,-13.431528,-10.124464,-5.602205,-11.411463,-15.490993,-15.196680,-14.322576,-17.297691,-1.712793,-4.267140,-13.675432,-32.439270,-25.331934,0.000000,188.000000,4.000000,,,,0.000000,4.000000,4.000000,4.000000,4.000000,4.000000,4.000000,4.000000,4.000000,4.000000,4.000000,4.000000,4.000000,4.000000,4.000000,4.000000,4.000000,4.000000,4.000000,4.000000,4.000000,4.000000,4.000000,4.000000,4.000000,4.000000,4.000000,4.000000,4.000000,4.000000,4.000000,4.000000,4.000000,100.000000
1614561297.403784,96.000000,0.000000,8.717410,-2.162974,-6.884228,13.710640,0.818572,0.302839,4.763081,10.257105,3.553540,7.643099,-17.225044,3.020666,6.523522,-8.812233,-7.984389,-21.216385,-0.338033,-6.664542,11.468372,-8.289891,-1.396390,-3.545321,-7.297487,1.960396,-12.617380,-10.718509,-16.767572,0.853023,-3.237232,-9.559193,-33.945293,-19.665575,8064.000000,0.000000,4.000000,,,,0.000000,4.000000,4.000000,4.000000,4.000000,4.000000,4.000000,4.000000,4.000000,4.000000,4.000000,4.000000,4.000000,4.000000,4.000000,4.000000,4.000000,4.000000,4.000000,4.000000,4.000000,4.000000,4.000000,4.000000,4.000000,4.000000,4.000000,4.000000,4.000000,4.000000,4.000000,4.000000,4.000000,100.000000
1614561297.411434,97.000000,0.000000,8.708694,-2.160811,-4.313241,14.722570,1.843395,0.302536,4.758317,10.759668,3.549986,0.455969,-9.002691,3.017645,6.516998,-2.649574,0.228724,-15.554143,1.713587,11.803660,35.559467,5.564553,10.912699,0.560788,-2.674805,27.599461,-14.143225,-9.682149,-7.007215,2.903452,1.381389,-1.857326,-28.270323,-17.594627,8064.000000,0.000000,4.000000,,,,0.000000,4.000000,4.000000,4.000000,4.000000,4.000000,4.000000,4.000000,4.000000,4.000000,4.000000,4.000000,4.000000,4.000000,4.000000,4.000000,4.000000,4.000000,4.000000,4.000000,4.000000,4.000000,4.000000,4.000000,4.000000,4.000000,4.000000,4.000000,4.000000,4.000000,4.000000,4.000000,4.000000,100.000000
1614561297.419283,98.000000,0.000000,8.699985,-2.158650,0.819277,19.323233,4.918475,0.302233,4.753559,10.236088,3.546436,1.993974,11.006311,6.604371,6.510481,3.506922,21.254135,8.563975,4.275976,26.663652,40.139294,16.841040,18.081272,5.175612,6.558639,39.366734,-14.129082,-5.569903,4.794663,10.080035,4.456931,4.298378,-12.344617,-10.910367,8064.000000,0.000000,4.000000,,,,0.000000,4.000000,4.000000,4.000000,4.000000,4.000000,4.000000,4.000000,4.000000,4.000000,4.000000,4.000000,4.000000,4.000000,4.000000,4.000000,4.000000,4.000000,4.000000,4.000000,4.000000,4.000000,4.000000,4.000000,4.000000,4.000000,4.000000,4.000000,4.000000,4.000000,4.000000,4.000000,4.000000,100.000000
1614561297.427032,99.000000,0.000000,8.691284,-2.669312,6.972304,21.868011,8.503300,0.301931,4.748806,10.225852,3.542890,4.043262,26.892740,10.700331,6.503971,8.118799,33.027752,33.170795,9.912725,32.790833,38.047871,21.439583,16.524731,8.760180,19.372593,41.378647,-3.858542,0.076692,6.841151,13.146878,3.426833,5.832541,-4.639965,-0.130225,8064.000000,0.000000,4.000000,,,,0.000000,4.000000,4.000000,4.000000,4.000000,4.000000,4.000000,4.000000,4.000000,4.000000,4.000000,4.000000,4.000000,4.000000,4.000000,4.000000,4.000000,4.000000,4.000000,4.000000,4.000000,4.000000,4.000000,4.000000,4.000000,4.000000,4.000000,4.000000,4.000000,4.000000,4.000000,4.000000,4.000000,100.000000
1614561297.434881,100.000000,0.000000,8.682593,-2.153822,9.016614,21.846144,8.494797,0.301629,4.744057,10.728446,3.539347,5.577681,28.404310,12.740912,6.497467,12.726065,33.507545,33.137627,13.492557,34.296505,36.471363,21.930964,11.380000,9.777061,22.942965,36.721886,11.017112,2.127898,6.834310,10.056808,3.423406,5.826708,-5.660965,4.485290,8064.000000,0.000000,4.000000,,,,0.000000,4.000000,4.000000,4.000000,4.000000,4.000000,4.000000,4.000000,4.000000,4.000000,4.000000,4.000000,4.000000,4.000000,4.000000,4.000000,4.000000,4.000000,4.000000,4.000000,4.000000,4.000000,4.000000,4.000000,4.000000,4.000000,4.000000,4.000000,4.000000,4.000000,4.000000,4.000000,4.000000,100.000000
1614561297.442631,101.000000,0.000000,8.673910,-2.151668,7.469136,21.311478,8.486301,0.301327,4.739313,9.179256,3.535807,5.059283,23.760521,9.651248,6.490970,13.226159,32.961220,27.463463,12.966244,30.672464,24.640018,14.729546,3.163492,9.767283,17.278996,17.197985,13.570197,0.587308,5.289014,7.482649,3.932804,6.333702,-5.655304,3.967983,8064.000000,0.000000,4.000000,,,,0.000000,4.000000,4.000000,4.000000,4.000000,4.000000,4.000000,4.000000,4.000000,4.000000,4.000000,4.000000,4.000000,4.000000,4.000000,4.000000,4.000000,4.000000,4.000000,4.000000,4.000000,4.000000,4.000000,4.000000,4.000000,4.000000,4.000000,4.000000,4.000000,4.000000,4.000000,4.000000,4.000000,100.000000
1614561297.450480,102.000000,0.000000,8.665236,-2.662337,5.410385,18.726063,8.477816,0.301026,4.734573,3.529052,3.532272,-1.099623,17.582914,-0.101993,6.484478,9.110369,24.723129,24.871897,12.953278,15.769998,3.076917,1.381483,-6.070441,9.757517,10.595050,-5.383317,3.300216,-1.464561,-6.511147,2.859782,3.416050,5.301727,-12.829137,0.887093,8064.000000,0.000000,4.000000,,,,0.000000,4.000000,4.000000,4.000000,4.000000,4.000000,4.000000,4.000000,4.000000,4.000000,4.000000,4.000000,4.000000,4.000000,4.000000,4.000000,4.000000,4.000000,4.000000,4.000000,4.000000,4.000000,4.000000,4.000000,4.000000,4.000000,4.000000,4.000000,4.000000,4.000000,4.000000,4.000000,4.000000,100.000000
1614561297.458229,103.000000,0.000000,8.656571,-1.634034,3.353692,14.604774,8.469337,0.300725,4.729839,-2.115503,3.015919,-9.303652,7.821742,-7.794198,6.477994,6.537156,5.211226,6.898306,12.427504,-4.245772,-10.259493,-4.773745,-10.679755,9.747759,2.379327,-11.531779,-4.395391,-3.001558,-16.761045,-4.322565,3.412634,2.219502,-24.098358,-7.318923,8064.000000,0.000000,4.000000,,,,0.000000,4.000000,4.000000,4.000000,4.000000,4.000000,4.000000,4.000000,4.000000,4.000000,4.000000,4.000000,4.000000,4.000000,4.000000,4.000000,4.000000,4.000000,4.000000,4.000000,4.000000,4.000000,4.000000,4.000000,4.000000,4.000000,4.000000,4.000000,4.000000,4.000000,4.000000,4.000000,4.000000,100.000000
1614561297.466078,104.000000,0.000000,8.647915,2.982985,0.273415,13.051707,8.460868,0.300424,4.725109,-5.190311,4.038544,-10.832809,2.172894,-8.812045,5.958695,5.504978,-6.076036,-11.057310,12.415076,-11.421014,-8.710772,-4.768971,-9.643435,8.712370,-5.315360,-7.930504,-6.442278,-2.998556,-14.693003,-7.395165,3.409222,0.678821,-26.638363,-15.003912,8064.000000,0.000000,4.000000,,,,0.000000,4.000000,4.000000,4.000000,4.000000,4.000000,4.000000,4.000000,4.000000,4.000000,4.000000,4.000000,4.000000,4.000000,4.000000,4.000000,4.000000,4.000000,4.000000,4.000000,4.000000,4.000000,4.000000,4.000000,4.000000,4.000000,4.000000,4.000000,4.000000,4.000000,4.000000,4.000000,4.000000,100.000000
1614561297.473828,105.000000,0.000000,8.126447,6.056925,0.273142,13.038655,8.452407,0.300124,4.207563,-4.672300,6.085787,-8.257874,2.683542,-7.777592,5.952737,6.525114,-2.993037,-6.430868,12.402661,-5.255746,-2.035394,-4.251381,-7.582509,9.729299,-5.822865,-4.845651,-6.435836,-2.995558,-12.114207,-6.874950,3.405812,2.216604,-24.560442,-15.501728,8064.000000,0.000000,4.000000,,,,0.000000,4.000000,4.000000,4.000000,4.000000,4.000000,4.000000,4.000000,4.000000,4.000000,4.000000,4.000000,4.000000,4.000000,4.000000,4.000000,4.000000,4.000000,4.000000,4.000000,4.000000,4.000000,4.000000,4.000000,4.000000,4.000000,4.000000,4.000000,4.000000,4.000000,4.000000,4.000000,4.000000,100.000000
1614561297.481677,106.000000,0.000000,8.118320,5.025227,0.272869,14.051257,8.443954,0.299824,5.228997,-4.154807,6.592522,-6.198334,3.193679,-5.718533,6.459605,6.005768,1.625340,0.755050,9.826156,-1.660747,-4.084641,-4.759951,-6.036465,9.719569,-2.740119,-1.763882,-6.942221,-2.992562,-13.640554,-6.355254,3.402406,1.188747,-25.048702,-14.460586,8064.000000,0.000000,4.000000,,,,0.000000,4.000000,4.000000,4.000000,4.000000,4.000000,4.000000,4.000000,4.000000,4.000000,4.000000,4.000000,4.000000,4.000000,4.000000,4.000000,4.000000,4.000000,4.000000,4.000000,4.000000,4.000000,4.000000,4.000000,4.000000,4.000000,4.000000,4.000000,4.000000,4.000000,4.000000,4.000000,4.000000,100.000000
1614561297.489426,107.000000,0.000000,8.623022,5.020202,-3.317148,12.498745,7.922690,-0.213296,3.685306,-7.740396,4.021827,-5.679315,-0.912079,-4.174352,5.940324,-1.179724,2.649356,-1.809808,4.688125,-4.223189,-9.721582,-6.806473,-5.517608,5.094465,-1.711738,-5.864682,-6.935278,-2.989570,-13.114094,-6.861720,3.399004,-4.453468,-27.074936,-16.497406,8064.000000,0.000000,4.000000,,,,0.000000,4.000000,4.000000,4.000000,4.000000,4.000000,4.000000,4.000000,4.000000,4.000000,4.000000,4.000000,4.000000,4.000000,4.000000,4.000000,4.000000,4.000000,4.000000,4.000000,4.000000,4.000000,4.000000,4.000000,4.000000,4.000000,4.000000,4.000000,4.000000,4.000000,4.000000,4.000000,4.000000,100.000000
1614561297.497275,108.000000,0.000000,7.588758,5.528002,0.275913,8.383682,8.427588,0.299737,0.604698,-12.348040,1.453703,-7.212097,-1.423987,-5.195819,5.934384,-5.793930,2.646707,5.884310,4.170616,2.447701,-4.583655,-7.312487,-6.024910,2.012448,-1.710026,-9.448561,-6.415523,-2.986580,-12.588159,-6.854858,3.395605,-5.987476,-29.099142,-19.557833,8064.000000,0.000000,4.000000,,,,0.000000,4.000000,4.000000,4.000000,4.000000,4.000000,4.000000,4.000000,4.000000,4.000000,4.000000,4.000000,4.000000,4.000000,4.000000,4.000000,4.000000,4.000000,4.000000,4.000000,4.000000,4.000000,4.000000,4.000000,4.000000,4.000000,4.000000,4.000000,4.000000,4.000000,4.000000,4.000000,4.000000,100.000000
1614561297.505025,109.000000,0.000000,8.606811,5.009654,11.557689,14.529144,8.419161,0.299438,2.655375,-8.745949,6.580454,-4.640783,10.885129,1.476043,9.518193,6.006736,4.182521,21.775862,10.320292,21.932432,13.369646,-4.741072,-4.480424,5.600179,-1.195496,1.330118,-6.409107,-3.496414,-12.062750,-5.309541,3.392210,0.172358,-28.044403,-18.512634,8064.000000,0.000000,4.000000,,,,0.000000,4.000000,4.000000,4.000000,4.000000,4.000000,4.000000,4.000000,4.000000,4.000000,4.000000,4.000000,4.000000,4.000000,4.000000,4.000000,4.000000,4.000000,4.000000,4.000000,4.000000,4.000000,4.000000,4.000000,4.000000,4.000000,4.000000,4.000000,4.000000,4.000000,4.000000,4.000000,4.000000,100.000000
1614561297.512874,110.000000,0.000000,13.213588,5.004644,16.674335,25.796667,7.897921,-0.726503,6.755284,-0.532074,15.804643,4.594627,23.694757,14.295080,14.124060,19.846884,10.845006,28.420752,15.438176,36.269474,30.792173,-3.710690,-0.373380,9.697143,-1.194300,17.739044,-5.889877,-2.980097,-9.999406,-2.740129,3.388817,1.197826,-23.400974,-10.288993,8064.000000,0.000000,4.000000,,,,0.000000,4.000000,4.000000,4.000000,4.000000,4.000000,4.000000,4.000000,4.000000,4.000000,4.000000,4.000000,4.000000,4.000000,4.000000,4.000000,4.000000,4.000000,4.000000,4.000000,4.000000,4.000000,4.000000,4.000000,4.000000,4.000000,4.000000,4.000000,4.000000,4.000000,4.000000,4.000000,4.000000,100.000000
1614561297.520623,111.000000,0.000000,16.277298,4.999640,15.632020,26.796511,8.915664,1.838326,8.799810,2.545381,18.865761,10.231058,27.260805,19.921810,18.212500,22.391140,24.680315,29.417973,16.448380,37.258846,37.940868,-3.706979,2.703917,9.687446,-1.193106,22.336691,-3.319885,-2.977117,-8.450945,-2.224569,3.385428,-1.880295,-20.813471,-3.099217,8064.000000,0.000000,4.000000,,,,0.000000,4.000000,4.000000,4.000000,4.000000,4.000000,4.000000,4.000000,4.000000,4.000000,4.000000,4.000000,4.000000,4.000000,4.000000,4.000000,4.000000,4.000000,4.000000,4.000000,4.000000,4.000000,4.000000,4.000000,4.000000,4.000000,4.000000,4.000000,4.000000,4.000000,4.000000,4.000000,4.000000,100.000000
1614561297.528273,112.000000,0.000000,15.748199,4.994640,15.616388,28.308176,10.958031,6.451872,10.329473,5.619759,17.821255,9.708007,26.207903,18.363428,20.758390,20.830286,34.399223,34.003941,16.431931,35.683125,36.877289,-1.139169,2.701213,9.677758,-0.679092,19.750252,-1.778104,-3.486960,-8.442493,-2.222344,3.894864,1.711329,-20.792656,-2.583297,8064.000000,0.000000,4.000000,,,,0.000000,4.000000,4.000000,4.000000,4.000000,4.000000,4.000000,4.000000,4.000000,4.000000,4.000000,4.000000,4.000000,4.000000,4.000000,4.000000,4.000000,4.000000,4.000000,4.000000,4.000000,4.000000,4.000000,4.000000,4.000000,4.000000,4.000000,4.000000,4.000000,4.000000,4.000000,4.000000,4.000000,100.000000
1614561297.536022,113.000000,0.000000,15.732451,4.989645,15.600772,35.459354,12.485534,8.496702,12.370425,13.306446,18.316254,9.185478,24.643234,18.857885,20.224812,21.322277,30.262260,33.969936,16.415499,36.673084,34.789127,-0.625210,1.160050,8.129619,-0.678413,21.781782,-2.801966,-1.945012,-8.434052,-2.220122,3.378148,5.299362,-19.233402,-4.119175,8064.000000,0.000000,4.000000,,,,0.000000,4.000000,4.000000,4.000000,4.000000,4.000000,4.000000,4.000000,4.000000,4.000000,4.000000,4.000000,4.000000,4.000000,4.000000,4.000000,4.000000,4.000000,4.000000,4.000000,4.000000,4.000000,4.000000,4.000000,4.000000,4.000000,4.000000,4.000000,4.000000,4.000000,4.000000,4.000000,4.000000,100.000000
1614561297.543671,114.000000,0.000000,16.229540,4.984655,16.097992,32.346973,11.960228,7.462565,12.358054,15.857243,18.810759,9.176292,22.054489,19.351847,18.153305,22.839417,23.052511,29.833401,16.399084,35.610771,32.703056,0.401057,2.697352,6.070207,-1.190555,20.221540,-2.286344,1.646677,-8.938437,-2.730722,3.887591,6.319703,-16.650066,-2.063774,8064.000000,0.000000,4.000000,,,,0.000000,4.000000,4.000000,4.000000,4.000000,4.000000,4.000000,4.000000,4.000000,4.000000,4.000000,4.000000,4.000000,4.000000,4.000000,4.000000,4.000000,4.000000,4.000000,4.000000,4.000000,4.000000,4.000000,4.000000,4.000000,4.000000,4.000000,4.000000,4.000000,4.000000,4.000000,4.000000,4.000000,100.000000
1614561297.551421,115.000000,0.000000,15.700490,4.979671,15.569074,25.135138,12.461088,7.455102,12.858517,14.302924,18.279127,10.192758,16.904228,16.768393,17.622330,20.252474,23.029459,23.649721,16.895504,26.857210,18.311378,1.426296,2.181834,6.064137,-0.676544,9.944908,-2.796878,5.747594,-8.416678,-2.215171,3.883703,9.390306,-16.633417,0.502392,8064.000000,0.000000,4.000000,,,,0.000000,4.000000,4.000000,4.000000,4.000000,4.000000,4.000000,4.000000,4.000000,4.000000,4.000000,4.000000,4.000000,4.000000,4.000000,4.000000,4.000000,4.000000,4.000000,4.000000,4.000000,4.000000,4.000000,4.000000,4.000000,4.000000,4.000000,4.000000,4.000000,4.000000,4.000000,4.000000,4.000000,100.000000
1614561297.559070,116.000000,0.000000,16.197609,4.974691,6.322735,23.571541,12.448627,5.396365,11.307197,15.827083,18.260847,8.644103,5.092453,14.187522,15.553426,12.539914,20.442327,11.318379,14.314507,9.394455,-8.373599,-10.882822,-6.025476,2.981150,-1.188688,-2.885550,-9.460748,5.229026,-8.408262,-2.725776,1.315717,5.278352,-18.668066,-0.523751,8064.000000,0.000000,4.000000,,,,0.000000,4.000000,4.000000,4.000000,4.000000,4.000000,4.000000,4.000000,4.000000,4.000000,4.000000,4.000000,4.000000,4.000000,4.000000,4.000000,4.000000,4.000000,4.000000,4.000000,4.000000,4.000000,4.000000,4.000000,4.000000,4.000000,4.000000,4.000000,4.000000,4.000000,4.000000,4.000000,4.000000,100.000000
1614561297.566819,117.000000,0.000000,15.668591,4.969717,-3.427177,18.932585,9.872076,1.288405,5.654864,11.708692,14.652843,-0.082490,-4.656229,9.045129,9.384027,5.860707,9.652654,0.537830,9.684808,-7.025196,-24.775482,-31.384760,-15.763041,-1.637216,-5.802884,-11.087792,-17.143595,0.095592,-12.502418,-6.312794,-4.326625,-6.008977,-22.751961,-5.138612,8064.000000,0.000000,4.000000,,,,0.000000,4.000000,4.000000,4.000000,4.000000,4.000000,4.000000,4.000000,4.000000,4.000000,4.000000,4.000000,4.000000,4.000000,4.000000,4.000000,4.000000,4.000000,4.000000,4.000000,4.000000,4.000000,4.000000,4.000000,4.000000,4.000000,4.000000,4.000000,4.000000,4.000000,4.000000,4.000000,4.000000,100.000000
1614561297.574469,118.000000,0.000000,14.114461,4.964747,-3.423750,13.272627,5.246819,-0.251345,1.033825,-3.687633,6.945883,-9.825996,-5.164393,0.830956,5.784899,5.342026,3.489155,-0.488349,7.623841,-10.607914,-21.160963,-38.532864,-18.824200,-2.661220,-10.925286,-13.640807,-18.152092,-5.545529,-16.079659,-10.921865,-7.912042,-10.105533,-24.780491,-9.236037,8064.000000,0.000000,4.000000,,,,0.000000,4.000000,4.000000,4.000000,4.000000,4.000000,4.000000,4.000000,4.000000,4.000000,4.000000,4.000000,4.000000,4.000000,4.000000,4.000000,4.000000,4.000000,4.000000,4.000000,4.000000,4.000000,4.000000,4.000000,4.000000,4.000000,4.000000,4.000000,4.000000,4.000000,4.000000,4.000000,4.000000,100.000000
1614561297.582218,119.000000,0.000000,12.049065,4.959782,-5.471609,13.259355,2.164649,0.261727,-1.018491,-13.940355,2.836373,-10.841812,-3.620768,-4.298080,5.779114,6.362325,2.460025,0.024960,8.641858,-9.058845,-12.421853,-32.340485,-14.702812,-1.632917,-12.965643,-14.652807,-17.108299,-7.591266,-16.576399,-9.885303,-7.391309,-9.069786,-24.755711,-10.765263,8064.000000,0.000000,4.000000,,,,0.000000,4.000000,4.000000,4.000000,4.000000,4.000000,4.000000,4.000000,4.000000,4.000000,4.000000,4.000000,4.000000,4.000000,4.000000,4.000000,4.000000,4.000000,4.000000,4.000000,4.000000,4.000000,4.000000,4.000000,4.000000,4.000000,4.000000,4.000000,4.000000,4.000000,4.000000,4.000000,4.000000,100.000000
1614561297.589868,120.000000,0.000000,9.985734,4.954823,-11.107162,10.681993,1.136844,0.261465,-2.555934,-11.875134,1.807895,-9.292508,-4.642788,-4.293782,6.286155,5.843142,-5.234743,-3.564808,8.633216,-10.075427,-11.896610,-30.256861,-8.534264,-1.631284,-11.927036,-12.074052,-17.604012,-8.609316,-16.047003,-6.798495,-7.383918,-10.086357,-24.730955,-14.344241,8064.000000,0.000000,4.000000,,,,0.000000,4.000000,4.000000,4.000000,4.000000,4.000000,4.000000,4.000000,4.000000,4.000000,4.000000,4.000000,4.000000,4.000000,4.000000,4.000000,4.000000,4.000000,4.000000,4.000000,4.000000,4.000000,4.000000,4.000000,4.000000,4.000000,4.000000,4.000000,4.000000,4.000000,4.000000,4.000000,4.000000,100.000000
1614561297.597617,121.000000,0.000000,8.437286,4.949867,-11.608876,5.543106,0.622886,0.261203,-3.066199,-11.350437,0.267626,-10.821677,-4.638145,-4.802309,5.767048,5.837299,-12.408996,-4.074064,8.111762,-9.552530,-13.935996,-29.713783,-4.935986,-2.142474,-8.325366,-4.369670,-17.586407,-10.651988,-16.543776,-6.278876,-7.889354,-7.512168,-24.706224,-20.996563,8064.000000,0.000000,4.000000,,,,0.000000,4.000000,4.000000,4.000000,4.000000,4.000000,4.000000,4.000000,4.000000,4.000000,4.000000,4.000000,4.000000,4.000000,4.000000,4.000000,4.000000,4.000000,4.000000,4.000000,4.000000,4.000000,4.000000,4.000000,4.000000,4.000000,4.000000,4.000000,4.000000,4.000000,4.000000,4.000000,4.000000,100.000000
1614561297.605266,122.000000,0.000000,7.916028,4.944918,-11.084447,5.024742,0.109443,0.260942,-3.063133,-13.390369,-1.271103,-9.785214,-3.607866,-4.797507,5.761281,5.831462,-12.909407,0.032574,8.616471,-3.901953,-5.204111,-25.068686,-5.443870,-2.140331,-5.240118,3.327007,-16.543180,-10.641336,-16.014412,-6.785417,-7.368645,-6.479015,-24.681519,-26.103773,8064.000000,0.000000,4.000000,,,,0.000000,4.000000,4.000000,4.000000,4.000000,4.000000,4.000000,4.000000,4.000000,4.000000,4.000000,4.000000,4.000000,4.000000,4.000000,4.000000,4.000000,4.000000,4.000000,4.000000,4.000000,4.000000,4.000000,4.000000,4.000000,4.000000,4.000000,4.000000,4.000000,4.000000,4.000000,4.000000,4.000000,100.000000
1614561297.613016,123.000000,0.000000,8.420933,4.939973,-10.560542,6.558179,0.622154,0.260681,-2.547249,-10.300056,-0.757012,-4.134404,-2.065797,-1.715786,6.268341,6.338451,-12.383677,3.109465,8.607855,1.230155,7.621605,-19.915411,-5.438426,-1.112550,-4.209237,5.374962,-13.962534,-10.117875,-16.511219,-6.265811,-7.361276,-11.087921,-24.656836,-26.590488,8064.000000,0.000000,4.000000,,,,0.000000,4.000000,4.000000,4.000000,4.000000,4.000000,4.000000,4.000000,4.000000,4.000000,4.000000,4.000000,4.000000,4.000000,4.000000,4.000000,4.000000,4.000000,4.000000,4.000000,4.000000,4.000000,4.000000,4.000000,4.000000,4.000000,4.000000,4.000000,4.000000,4.000000,4.000000,4.000000,4.000000,100.000000
1614561297.620665,124.000000,0.000000,8.412512,5.447853,-3.883314,5.525980,4.724096,0.260421,-0.493420,-5.674371,0.782207,0.485115,-0.012449,-0.688429,6.262073,8.896214,-10.832832,5.157637,8.599247,2.254565,12.229368,-14.767290,-4.920167,1.452665,-4.717848,5.882408,-10.871649,-10.107757,-15.469066,-3.695443,-7.353915,-7.999910,-24.632179,-23.999796,8064.000000,0.000000,4.000000,,,,0.000000,4.000000,4.000000,4.000000,4.000000,4.000000,4.000000,4.000000,4.000000,4.000000,4.000000,4.000000,4.000000,4.000000,4.000000,4.000000,4.000000,4.000000,4.000000,4.000000,4.000000,4.000000,4.000000,4.000000,4.000000,4.000000,4.000000,4.000000,4.000000,4.000000,4.000000,4.000000,4.000000,100.000000
1614561297.628414,125.000000,0.000000,8.404099,4.929585,3.300056,9.623017,9.334757,0.260160,1.558356,-3.617414,2.832707,2.535912,0.500384,-0.687741,6.255810,9.912960,-6.206614,7.203762,8.590648,1.739490,11.191498,-10.649960,-4.915247,2.476854,-4.713130,5.876525,-9.835136,-10.097649,-11.351033,-2.153286,-7.346560,-1.838064,-24.607548,-18.847591,8064.000000,0.000000,4.000000,,,,0.000000,4.000000,4.000000,4.000000,4.000000,4.000000,4.000000,4.000000,4.000000,4.000000,4.000000,4.000000,4.000000,4.000000,4.000000,4.000000,4.000000,4.000000,4.000000,4.000000,4.000000,4.000000,4.000000,4.000000,4.000000,4.000000,4.000000,4.000000,4.000000,4.000000,4.000000,4.000000,4.000000,100.000000
1614561297.636064,126.000000,0.000000,8.395696,4.924655,5.348038,17.305702,8.812601,0.259900,1.043977,-0.024053,3.342695,4.071837,-1.551398,3.928332,6.249555,9.390226,-2.097844,7.709378,8.582057,2.763392,10.667486,-10.639309,-5.935973,1.961556,-4.195596,5.357828,-9.312480,-10.600372,-8.262758,-2.663953,-7.339214,-1.836226,-24.582939,-14.213359,8064.000000,0.000000,4.000000,,,,0.000000,4.000000,4.000000,4.000000,4.000000,4.000000,4.000000,4.000000,4.000000,4.000000,4.000000,4.000000,4.000000,4.000000,4.000000,4.000000,4.000000,4.000000,4.000000,4.000000,4.000000,4.000000,4.000000,4.000000,4.000000,4.000000,4.000000,4.000000,4.000000,4.000000,4.000000,4.000000,4.000000,100.000000
1614561297.643813,127.000000,0.000000,8.387300,5.945372,7.393972,21.903782,7.778148,0.259640,1.042933,3.565714,2.826531,5.606227,1.014256,9.052608,6.243305,10.919297,6.622203,10.265772,8.573475,4.299090,11.169640,-11.141490,-6.442857,1.959595,-5.217041,5.865291,-10.328809,-10.076951,-8.767317,-2.661289,-7.844696,-0.295928,-24.558357,-11.635043,8064.000000,0.000000,4.000000,,,,0.000000,4.000000,4.000000,4.000000,4.000000,4.000000,4.000000,4.000000,4.000000,4.000000,4.000000,4.000000,4.000000,4.000000,4.000000,4.000000,4.000000,4.000000,4.000000,4.000000,4.000000,4.000000,4.000000,4.000000,4.000000,4.000000,4.000000,4.000000,4.000000,4.000000,4.000000,4.000000,4.000000,100.000000
1614561297.651463,0.000000,0.000000,8.378913,2.862503,8.412219,20.856237,9.308831,0.259381,1.041890,4.074969,5.387807,7.651903,11.269651,11.094838,5.724241,13.472481,20.461735,15.896531,8.564901,9.422997,15.773854,-6.514964,-5.410773,1.957635,-6.237466,7.910707,-10.318480,-10.066875,-8.245728,-2.658628,-7.324030,0.217189,-24.533798,-10.084947,0.000000,180.000000,4.000000,,,,0.000000,4.000000,4.000000,4.000000,4.000000,4.000000,4.000000,4.000000,4.000000,4.000000,4.000000,4.000000,4.000000,4.000000,4.000000,4.000000,4.000000,4.000000,4.000000,4.000000,4.000000,4.000000,4.000000,4.000000,4.000000,4.000000,4.000000,4.000000,4.000000,4.000000,4.000000,4.000000,4.000000,100.000000
1614561297.659312,1.000000,0.000000,8.370534,-1.755744,3.788422,20.835381,7.248240,0.259121,1.040848,3.045253,7.433702,11.746816,19.463511,12.622205,6.231338,13.971828,27.107939,20.496019,8.556336,16.080240,21.399105,-2.405885,-5.405363,1.955677,-1.615844,9.441258,-7.231238,-10.569628,-9.775945,-3.168790,-7.316706,-6.962516,-24.509264,-10.074862,0.000000,182.000000,4.000000,,,,0.000000,4.000000,4.000000,4.000000,4.000000,4.000000,4.000000,4.000000,4.000000,4.000000,4.000000,4.000000,4.000000,4.000000,4.000000,4.000000,4.000000,4.000000,4.000000,4.000000,4.000000,4.000000,4.000000,4.000000,4.000000,4.000000,4.000000,4.000000,4.000000,4.000000,4.000000,4.000000,4.000000,100.000000
1614561297.667061,2.000000,0.000000,8.362164,-2.779629,0.194890,21.840185,2.112787,0.258862,1.039807,3.555028,6.913447,12.760710,18.931227,14.660865,6.225106,13.445037,25.542370,18.937061,6.496498,17.602621,17.787964,-3.429120,-6.938419,1.953722,2.488336,8.918997,-6.711187,-9.533417,-13.355912,-2.139980,-7.822210,-6.955553,-24.997576,-12.116069,0.000000,196.000000,4.000000,,,,0.000000,4.000000,4.000000,4.000000,4.000000,4.000000,4.000000,4.000000,4.000000,4.000000,4.000000,4.000000,4.000000,4.000000,4.000000,4.000000,4.000000,4.000000,4.000000,4.000000,4.000000,4.000000,4.000000,4.000000,4.000000,4.000000,4.000000,4.000000,4.000000,4.000000,4.000000,4.000000,4.000000,100.000000
1614561297.674910,3.000000,0.000000,8.353801,-2.264029,0.707516,20.792706,0.059392,0.258603,0.525947,3.038653,6.906534,12.235128,17.886654,14.646204,5.193240,13.431591,25.516827,18.918125,4.951540,17.072197,14.180431,-4.964153,-0.777634,1.438948,-0.591075,8.397257,-6.704475,-4.908499,-8.214351,-0.599378,-7.301567,2.282171,-24.459759,-9.027029,0.000000,198.000000,4.000000,,,,0.000000,4.000000,4.000000,4.000000,4.000000,4.000000,4.000000,4.000000,4.000000,4.000000,4.000000,4.000000,4.000000,4.000000,4.000000,4.000000,4.000000,4.000000,4.000000,4.000000,4.000000,4.000000,4.000000,4.000000,4.000000,4.000000,4.000000,4.000000,4.000000,4.000000,4.000000,4.000000,4.000000,100.000000
1614561297.682660,4.000000,0.000000,8.345448,-2.261765,0.706808,21.284733,2.110615,0.258345,2.063882,3.035614,7.412448,12.222893,19.407228,14.118737,7.239329,13.418159,26.004131,20.437668,4.433768,17.567945,19.807278,0.681837,10.505195,2.463150,4.024901,11.978603,0.994537,0.224615,1.024633,1.452503,-2.678881,6.382453,-24.435299,-3.376977,0.000000,200.000000,4.000000,,,,0.000000,4.000000,4.000000,4.000000,4.000000,4.000000,4.000000,4.000000,4.000000,4.000000,4.000000,4.000000,4.000000,4.000000,4.000000,4.000000,4.000000,4.000000,4.000000,4.000000,4.000000,4.000000,4.000000,4.000000,4.000000,4.000000,4.000000,4.000000,4.000000,4.000000,4.000000,4.000000,4.000000,100.000000
1614561297.690509,5.000000,0.000000,8.337102,-2.772324,0.193281,21.263449,4.159786,0.258086,4.113101,3.032578,6.892215,12.723491,17.336540,14.104618,11.847474,13.404741,22.901203,16.827488,4.942154,13.447814,22.864393,7.860642,13.571612,5.024789,18.379850,15.556368,11.249952,0.224390,3.074890,4.527974,0.400721,7.914533,-26.462145,-6.450523,0.000000,173.000000,4.000000,,,,0.000000,4.000000,4.000000,4.000000,4.000000,4.000000,4.000000,4.000000,4.000000,4.000000,4.000000,4.000000,4.000000,4.000000,4.000000,4.000000,4.000000,4.000000,4.000000,4.000000,4.000000,4.000000,4.000000,4.000000,4.000000,4.000000,4.000000,4.000000,4.000000,4.000000,4.000000,4.000000,4.000000,100.000000
1614561297.698258,6.000000,0.000000,8.328765,-2.256731,-0.319733,18.165260,4.668447,0.257828,5.134628,3.029546,6.372502,12.197947,12.703818,14.090513,14.399729,13.391337,20.827021,9.118352,4.937212,6.254879,15.149220,5.288679,9.968297,6.045405,19.899931,14.515171,13.289985,0.736986,1.533354,8.113189,0.400320,12.522002,-22.333118,-6.956893,0.000000,183.000000,4.000000,,,,0.000000,4.000000,4.000000,4.000000,4.000000,4.000000,4.000000,4.000000,4.000000,4.000000,4.000000,4.000000,4.000000,4.000000,4.000000,4.000000,4.000000,4.000000,4.000000,4.000000,4.000000,4.000000,4.000000,4.000000,4.000000,4.000000,4.000000,4.000000,4.000000,4.000000,4.000000,4.000000,4.000000,100.000000
1614561297.706107,7.000000,0.000000,8.320436,-2.254474,0.706228,15.070173,4.663778,0.257570,4.616673,3.026516,6.878950,12.185749,10.127012,14.076423,13.359689,13.377946,21.319014,7.057951,4.932275,4.710163,4.877661,-2.921738,8.932688,5.526539,10.649262,12.962194,11.738233,6.377275,2.557461,8.617896,-0.112901,13.535122,-10.515914,8.434680,0.000000,188.000000,4.000000,,,,0.000000,4.000000,4.000000,4.000000,4.000000,4.000000,4.000000,4.000000,4.000000,4.000000,4.000000,4.000000,4.000000,4.000000,4.000000,4.000000,4.000000,4.000000,4.000000,4.000000,4.000000,4.000000,4.000000,4.000000,4.000000,4.000000,4.000000,4.000000,4.000000,4.000000,4.000000,4.000000,4.000000,100.000000
1614561297.713857,8.000000,0.000000,8.312116,-2.252220,1.218342,11.465359,4.659114,0.257313,4.612057,3.023490,6.872071,12.173563,10.116885,14.062346,13.346329,13.364568,21.297695,10.640637,4.927343,5.731093,2.308681,-4.970098,9.949396,5.521013,8.587332,11.410770,12.239315,11.499103,2.554904,8.609279,0.400033,12.495946,-3.838731,22.785219,0.000000,185.000000,4.000000,,,,0.000000,4.000000,4.000000,4.000000,4.000000,4.000000,4.000000,4.000000,4.000000,4.000000,4.000000,4.000000,4.000000,4.000000,4.000000,4.000000,4.000000,4.000000,4.000000,4.000000,4.000000,4.000000,4.000000,4.000000,4.000000,4.000000,4.000000,4.000000,4.000000,4.000000,4.000000,4.000000,4.000000,100.000000
1614561297.721706,9.000000,0.000000,8.303803,-2.249968,-2.885440,5.300047,4.654455,0.257055,4.607445,3.020466,3.788276,10.622928,10.106769,13.535463,13.845803,12.838383,17.173834,11.142817,4.409595,4.699721,3.332013,-3.939487,8.913806,5.515492,10.630026,6.783975,11.714255,12.000424,2.039528,7.062208,-0.113188,12.483450,-1.270790,21.736794,0.000000,192.000000,4.000000,,,,0.000000,4.000000,4.000000,4.000000,4.000000,4.000000,4.000000,4.000000,4.000000,4.000000,4.000000,4.000000,4.000000,4.000000,4.000000,4.000000,4.000000,4.000000,4.000000,4.000000,4.000000,4.000000,4.000000,4.000000,4.000000,4.000000,4.000000,4.000000,4.000000,4.000000,4.000000,4.000000,4.000000,100.000000
1614561297.729455,10.000000,0.000000,8.295500,-2.247718,-2.882555,2.217824,4.649801,0.256798,4.602837,3.017446,2.758847,8.561023,10.096662,14.034749,13.319137,12.825544,13.054095,10.618854,4.405186,4.695022,4.867143,-4.448368,8.392072,4.997156,9.593755,4.725909,12.215362,10.962783,1.011848,5.003863,-0.113075,12.470966,5.909968,19.150953,0.000000,209.000000,4.000000,,,,0.000000,4.000000,4.000000,4.000000,4.000000,4.000000,4.000000,4.000000,4.000000,4.000000,4.000000,4.000000,4.000000,4.000000,4.000000,4.000000,4.000000,4.000000,4.000000,4.000000,4.000000,4.000000,4.000000,4.000000,4.000000,4.000000,4.000000,4.000000,4.000000,4.000000,4.000000,4.000000,4.000000,100.000000
1614561297.737304,11.000000,0.000000,8.287204,-2.245470,4.812635,5.292530,5.157971,0.256542,4.598234,3.014428,5.320190,8.039641,10.599385,13.507894,11.254536,13.325540,13.553862,11.121056,4.913601,5.203147,9.477660,-2.905458,8.383679,6.017800,9.071341,8.823748,11.690326,11.977461,1.523656,3.973219,-0.112962,12.458495,13.083546,22.208725,0.000000,201.000000,4.000000,,,,0.000000,4.000000,4.000000,4.000000,4.000000,4.000000,4.000000,4.000000,4.000000,4.000000,4.000000,4.000000,4.000000,4.000000,4.000000,4.000000,4.000000,4.000000,4.000000,4.000000,4.000000,4.000000,4.000000,4.000000,4.000000,4.000000,4.000000,4.000000,4.000000,4.000000,4.000000,4.000000,4.000000,100.000000
1614561297.745054,12.000000,0.000000,8.278917,-2.243224,7.371925,5.287237,3.614352,0.256285,4.593636,3.011414,5.827691,8.544422,9.563145,13.494386,9.704820,12.799393,13.027488,10.597114,4.395867,5.197944,16.134850,2.738473,8.888117,7.550243,9.062269,11.379026,9.114532,11.965484,2.034953,3.969245,-0.112849,11.933216,12.044821,21.160875,0.000000,199.000000,4.000000,,,,0.000000,4.000000,4.000000,4.000000,4.000000,4.000000,4.000000,4.000000,4.000000,4.000000,4.000000,4.000000,4.000000,4.000000,4.000000,4.000000,4.000000,4.000000,4.000000,4.000000,4.000000,4.000000,4.000000,4.000000,4.000000,4.000000,4.000000,4.000000,4.000000,4.000000,4.000000,4.000000,4.000000,100.000000
1614561297.752903,13.000000,0.000000,8.783459,-2.240981,2.749169,1.692206,1.046635,0.256029,4.589043,3.521223,3.257761,8.535878,10.579223,15.019353,9.695114,13.299415,13.527281,14.689081,5.417112,9.808131,18.169996,7.351119,9.392049,10.106795,9.053207,12.906109,10.643880,10.927876,-0.018364,5.503737,-0.112736,11.921283,10.494314,16.524330,0.000000,215.000000,4.000000,,,,0.000000,4.000000,4.000000,4.000000,4.000000,4.000000,4.000000,4.000000,4.000000,4.000000,4.000000,4.000000,4.000000,4.000000,4.000000,4.000000,4.000000,4.000000,4.000000,4.000000,4.000000,4.000000,4.000000,4.000000,4.000000,4.000000,4.000000,4.000000,4.000000,4.000000,4.000000,4.000000,4.000000,100.000000
1614561297.760652,14.000000,0.000000,8.261854,-2.238740,7.361804,2.716155,0.532768,0.768593,5.610095,3.517702,4.280144,10.065804,15.696849,16.542795,9.172599,15.850218,22.744522,22.879520,10.027080,17.490631,18.151827,9.395050,8.869836,12.660791,9.556974,19.047049,14.222980,11.942590,4.084219,7.036695,-0.112623,16.011927,14.586384,18.559088,0.000000,199.000000,4.000000,,,,0.000000,4.000000,4.000000,4.000000,4.000000,4.000000,4.000000,4.000000,4.000000,4.000000,4.000000,4.000000,4.000000,4.000000,4.000000,4.000000,4.000000,4.000000,4.000000,4.000000,4.000000,4.000000,4.000000,4.000000,4.000000,4.000000,4.000000,4.000000,4.000000,4.000000,4.000000,4.000000,4.000000,100.000000
1614561297.768302,15.000000,0.000000,8.253592,-2.236501,17.610853,5.790362,1.045056,0.255004,7.142946,3.001364,7.352787,12.107019,18.758076,18.064714,10.189067,16.347187,31.439726,26.959204,15.145257,23.114166,23.261879,10.924117,9.373787,12.648130,11.598700,23.643387,14.721577,13.981930,15.362185,8.055300,-0.112510,19.585657,22.776926,25.207195,0.000000,209.000000,4.000000,,,,0.000000,4.000000,4.000000,4.000000,4.000000,4.000000,4.000000,4.000000,4.000000,4.000000,4.000000,4.000000,4.000000,4.000000,4.000000,4.000000,4.000000,4.000000,4.000000,4.000000,4.000000,4.000000,4.000000,4.000000,4.000000,4.000000,4.000000,4.000000,4.000000,4.000000,4.000000,4.000000,4.000000,100.000000
1614561297.776051,16.000000,0.000000,8.758160,-2.234265,18.106062,6.297392,1.044011,0.767570,8.674265,3.511183,6.832613,12.607734,18.226496,22.149214,13.255801,17.356482,33.972389,27.957886,18.207035,24.629513,28.879644,16.041397,12.441337,13.148303,14.151203,24.132563,19.322241,14.993588,21.500669,10.611347,-0.112398,20.078892,28.907995,29.284554,0.000000,200.000000,4.000000,,,,0.000000,4.000000,4.000000,4.000000,4.000000,4.000000,4.000000,4.000000,4.000000,4.000000,4.000000,4.000000,4.000000,4.000000,4.000000,4.000000,4.000000,4.000000,4.000000,4.000000,4.000000,4.000000,4.000000,4.000000,4.000000,4.000000,4.000000,4.000000,4.000000,4.000000,4.000000,4.000000,4.000000,100.000000
1614561297.783701,17.000000,0.000000,7.210940,-2.232031,14.498213,6.291095,1.042967,1.279623,9.691232,2.994851,6.312961,11.569485,19.233912,20.075781,11.704084,18.364765,32.399956,23.314545,14.599085,22.040781,28.850763,18.589458,13.967357,13.647975,16.188334,24.108431,25.969585,14.978595,20.966349,12.652018,-0.112285,19.545994,29.904728,29.255268,0.000000,191.000000,4.000000,,,,0.000000,4.000000,4.000000,4.000000,4.000000,4.000000,4.000000,4.000000,4.000000,4.000000,4.000000,4.000000,4.000000,4.000000,4.000000,4.000000,4.000000,4.000000,4.000000,4.000000,4.000000,4.000000,4.000000,4.000000,4.000000,4.000000,4.000000,4.000000,4.000000,4.000000,4.000000,4.000000,4.000000,100.000000
1614561297.791450,18.000000,0.000000,3.101165,-2.229799,16.022177,7.823266,1.041924,-2.311401,3.527694,-0.085067,7.332288,10.019454,15.624933,7.235193,4.512893,9.628452,23.136786,8.419435,1.251152,9.198227,23.693708,16.006767,7.799543,7.993302,17.197786,19.981758,21.841051,14.963616,19.919741,8.536801,-0.112173,19.013626,28.336363,27.687551,0.000000,199.000000,4.000000,,,,0.000000,4.000000,4.000000,4.000000,4.000000,4.000000,4.000000,4.000000,4.000000,4.000000,4.000000,4.000000,4.000000,4.000000,4.000000,4.000000,4.000000,4.000000,4.000000,4.000000,4.000000,4.000000,4.000000,4.000000,4.000000,4.000000,4.000000,4.000000,4.000000,4.000000,4.000000,4.000000,4.000000,100.000000
1614561297.799099,19.000000,0.000000,0.533961,-2.227569,14.980513,6.276980,1.040882,-6.924474,-7.245065,-4.187546,7.837777,8.470973,4.840077,-2.002811,-0.107005,-4.227330,10.805958,-4.409498,-10.032150,-4.144304,16.490528,14.452298,1.637897,-0.732640,17.180590,10.218186,15.152543,14.948653,15.284437,4.425701,-0.112061,16.430510,26.769564,23.044479,0.000000,212.000000,4.000000,,,,0.000000,4.000000,4.000000,4.000000,4.000000,4.000000,4.000000,4.000000,4.000000,4.000000,4.000000,4.000000,4.000000,4.000000,4.000000,4.000000,4.000000,4.000000,4.000000,4.000000,4.000000,4.000000,4.000000,4.000000,4.000000,4.000000,4.000000,4.000000,4.000000,4.000000,4.000000,4.000000,4.000000,100.000000
1614561297.806849,20.000000,0.000000,1.046248,-2.225341,10.862968,6.270704,1.039841,-7.430370,-10.827563,-5.208999,6.291477,8.462502,-1.831429,0.563294,-1.132539,-2.684641,9.769510,-2.353806,-10.022118,-5.165801,9.294549,14.950666,1.123439,0.293733,15.624947,4.566943,15.137390,15.959345,13.217871,7.498198,-0.111949,15.901259,25.717154,20.457333,0.000000,194.000000,4.000000,,,,0.000000,4.000000,4.000000,4.000000,4.000000,4.000000,4.000000,4.000000,4.000000,4.000000,4.000000,4.000000,4.000000,4.000000,4.000000,4.000000,4.000000,4.000000,4.000000,4.000000,4.000000,4.000000,4.000000,4.000000,4.000000,4.000000,4.000000,4.000000,4.000000,4.000000,4.000000,4.000000,4.000000,100.000000
1614561297.814498,21.000000,0.000000,1.045201,-2.223116,17.005951,13.956740,1.038801,-6.397298,-9.791095,-2.639688,7.310827,9.479680,-0.803957,3.639654,-1.644227,6.548813,13.862305,2.776753,-6.422352,2.531672,6.721152,13.910075,0.609495,4.908824,11.506758,5.075196,15.635074,17.994667,15.768755,7.490700,0.400984,15.885358,25.691437,25.052259,0.000000,225.000000,4.000000,,,,0.000000,4.000000,4.000000,4.000000,4.000000,4.000000,4.000000,4.000000,4.000000,4.000000,4.000000,4.000000,4.000000,4.000000,4.000000,4.000000,4.000000,4.000000,4.000000,4.000000,4.000000,4.000000,4.000000,4.000000,4.000000,4.000000,4.000000,4.000000,4.000000,4.000000,4.000000,4.000000,4.000000,100.000000
1614561297.822247,22.000000,0.000000,0.531336,-2.220893,23.655613,9.840219,1.037762,-8.955004,-12.345406,-4.688330,10.380439,5.880457,-0.290332,1.584732,-2.155403,3.465341,9.745878,2.261155,-6.928751,5.606064,3.124688,13.896165,-1.955217,0.288531,8.931149,1.993198,15.106618,18.489494,13.701704,1.329363,-1.650699,15.869473,26.178566,28.616951,0.000000,200.000000,4.000000,,,,0.000000,4.000000,4.000000,4.000000,4.000000,4.000000,4.000000,4.000000,4.000000,4.000000,4.000000,4.000000,4.000000,4.000000,4.000000,4.000000,4.000000,4.000000,4.000000,4.000000,4.000000,4.000000,4.000000,4.000000,4.000000,4.000000,4.000000,4.000000,4.000000,4.000000,4.000000,4.000000,4.000000,100.000000
1614561297.829897,23.000000,0.000000,1.043625,-2.218672,10.298623,-11.708082,1.549545,-10.997331,-14.384342,-15.452872,6.267495,-1.817731,-1.315683,-3.545058,-1.640427,-2.179150,2.043825,3.797356,-6.921822,4.061996,-1.493822,13.882269,-2.978903,-2.275860,8.922217,-3.137000,15.091512,15.394081,9.072618,0.302393,-3.700331,16.879244,25.639566,28.588333,0.000000,213.000000,4.000000,,,,0.000000,4.000000,4.000000,4.000000,4.000000,4.000000,4.000000,4.000000,4.000000,4.000000,4.000000,4.000000,4.000000,4.000000,4.000000,4.000000,4.000000,4.000000,4.000000,4.000000,4.000000,4.000000,4.000000,4.000000,4.000000,4.000000,4.000000,4.000000,4.000000,4.000000,4.000000,4.000000,4.000000,100.000000
1614561297.837646,24.000000,0.000000,1.042581,-2.216453,-8.686034,-25.542528,-0.503287,-10.473513,-13.344317,-23.129728,-2.969542,-7.456939,-0.801547,-10.208179,-1.125966,-1.151330,-3.086424,5.332020,-5.889259,0.468190,-5.082071,3.611976,-1.950283,1.316159,9.426116,-2.621042,10.973856,9.224841,8.550725,3.891834,-3.696630,14.298263,22.024183,28.559746,0.000000,182.000000,4.000000,,,,0.000000,4.000000,4.000000,4.000000,4.000000,4.000000,4.000000,4.000000,4.000000,4.000000,4.000000,4.000000,4.000000,4.000000,4.000000,4.000000,4.000000,4.000000,4.000000,4.000000,4.000000,4.000000,4.000000,4.000000,4.000000,4.000000,4.000000,4.000000,4.000000,4.000000,4.000000,4.000000,4.000000,100.000000
1614561297.845295,25.000000,0.000000,1.041539,-2.214237,-11.754272,-23.978523,-2.554065,-10.975860,-14.869434,-23.106598,-5.530675,-9.500764,-0.287925,-12.249253,-1.637661,-2.688640,-5.647440,-2.365620,-5.883369,-3.122021,-6.615451,-10.750610,-1.948333,-1.249260,9.416690,-3.131242,4.809036,4.087411,7.516533,4.913583,-5.231395,6.078836,17.899595,28.531185,0.000000,218.000000,4.000000,,,,0.000000,4.000000,4.000000,4.000000,4.000000,4.000000,4.000000,4.000000,4.000000,4.000000,4.000000,4.000000,4.000000,4.000000,4.000000,4.000000,4.000000,4.000000,4.000000,4.000000,4.000000,4.000000,4.000000,4.000000,4.000000,4.000000,4.000000,4.000000,4.000000,4.000000,4.000000,4.000000,4.000000,100.000000
1614561297.853045,26.000000,0.000000,1.040497,-2.212023,-7.639953,-22.416084,-3.064332,-10.964884,-12.290462,-22.057850,-3.986683,-10.516905,-0.287637,-6.595978,-1.636023,-4.224413,-3.077690,-3.901716,-5.364666,2.009306,1.596293,-10.739860,-1.946385,-2.273651,9.407273,-2.102470,3.265765,3.057683,4.944914,3.883029,-7.790267,0.431731,17.881695,27.989834,0.000000,217.000000,4.000000,,,,0.000000,4.000000,4.000000,4.000000,4.000000,4.000000,4.000000,4.000000,4.000000,4.000000,4.000000,4.000000,4.000000,4.000000,4.000000,4.000000,4.000000,4.000000,4.000000,4.000000,4.000000,4.000000,4.000000,4.000000,4.000000,4.000000,4.000000,4.000000,4.000000,4.000000,4.000000,4.000000,4.000000,100.000000
1614561297.860694,27.000000,0.000000,1.039457,-2.209810,-5.068211,-19.829565,-2.548447,-7.364176,-0.483300,-19.471689,-5.521158,-8.967926,1.763933,1.615746,2.980998,1.933658,5.130516,10.461161,-1.769558,12.776527,18.517773,0.552932,-1.944438,4.395289,9.397865,8.668863,4.288141,2.541804,4.939969,4.391966,-4.705553,0.431300,19.402275,28.987486,0.000000,204.000000,4.000000,,,,0.000000,4.000000,4.000000,4.000000,4.000000,4.000000,4.000000,4.000000,4.000000,4.000000,4.000000,4.000000,4.000000,4.000000,4.000000,4.000000,4.000000,4.000000,4.000000,4.000000,4.000000,4.000000,4.000000,4.000000,4.000000,4.000000,4.000000,4.000000,4.000000,4.000000,4.000000,4.000000,4.000000,100.000000
1614561297.868444,28.000000,0.000000,1.038417,-2.720421,1.603524,-11.604608,-3.058719,-3.254247,6.183850,-12.785551,-3.977175,-6.907676,2.787810,4.178233,6.567760,6.547109,10.253591,18.655827,1.309135,14.815033,24.653101,6.706225,-1.942494,4.903714,9.388468,17.378143,3.771032,3.564903,3.909388,4.387574,-0.085463,1.456509,14.254667,25.368753,0.000000,184.000000,4.000000,,,,0.000000,4.000000,4.000000,4.000000,4.000000,4.000000,4.000000,4.000000,4.000000,4.000000,4.000000,4.000000,4.000000,4.000000,4.000000,4.000000,4.000000,4.000000,4.000000,4.000000,4.000000,4.000000,4.000000,4.000000,4.000000,4.000000,4.000000,4.000000,4.000000,4.000000,4.000000,4.000000,4.000000,100.000000
1614561297.876093,29.000000,0.000000,1.037379,-2.204880,7.755767,-5.439157,-3.055660,-2.738173,5.664845,-10.721484,-1.409095,-5.875127,3.297843,1.609952,4.509910,6.540562,10.756157,10.944864,1.820647,9.672012,18.987423,6.186698,-1.940551,-1.255036,9.379080,13.771022,3.254440,4.074159,1.854197,4.383186,0.427443,0.429412,8.086567,16.112616,0.000000,196.000000,4.000000,,,,0.000000,4.000000,4.000000,4.000000,4.000000,4.000000,4.000000,4.000000,4.000000,4.000000,4.000000,4.000000,4.000000,4.000000,4.000000,4.000000,4.000000,4.000000,4.000000,4.000000,4.000000,4.000000,4.000000,4.000000,4.000000,4.000000,4.000000,4.000000,4.000000,4.000000,4.000000,4.000000,4.000000,100.000000
1614561297.883842,30.000000,0.000000,1.036341,-2.202675,7.235191,-4.408076,-2.539784,-3.248255,5.659181,-11.223582,-0.894866,-5.869252,3.807365,-0.442940,2.966939,6.021201,10.745401,6.318534,1.818826,5.559777,17.942795,7.206152,-1.938611,-1.766601,7.318418,9.141866,4.276827,0.993162,0.313881,4.378803,-0.598626,0.428982,9.104121,13.019581,0.000000,199.000000,4.000000,,,,0.000000,4.000000,4.000000,4.000000,4.000000,4.000000,4.000000,4.000000,4.000000,4.000000,4.000000,4.000000,4.000000,4.000000,4.000000,4.000000,4.000000,4.000000,4.000000,4.000000,4.000000,4.000000,4.000000,4.000000,4.000000,4.000000,4.000000,4.000000,4.000000,4.000000,4.000000,4.000000,4.000000,100.000000
1614561297.891492,31.000000,0.000000,1.035305,-3.738934,7.740776,-4.916489,-3.562885,-3.245007,1.550957,-8.648256,2.695773,-6.376204,-2.350288,0.070323,1.425510,2.425436,8.170553,6.825037,0.791366,2.477294,16.899210,7.711767,-3.475134,-3.303296,5.772638,8.619904,3.759730,8.684477,0.826388,4.374424,-0.085206,3.505476,13.197581,22.237329,0.000000,168.000000,4.000000,,,,0.000000,4.000000,4.000000,4.000000,4.000000,4.000000,4.000000,4.000000,4.000000,4.000000,4.000000,4.000000,4.000000,4.000000,4.000000,4.000000,4.000000,4.000000,4.000000,4.000000,4.000000,4.000000,4.000000,4.000000,4.000000,4.000000,4.000000,4.000000,4.000000,4.000000,4.000000,4.000000,4.000000,100.000000
1614561297.899241,32.000000,0.000000,1.034270,-0.658272,13.374061,-3.373111,-2.533681,-2.728941,-7.681363,-6.588326,10.898205,-5.344186,-8.501784,0.070253,-5.242582,-4.243656,4.572639,3.741288,-3.311990,2.474816,14.318209,7.191235,-6.035761,-8.941018,5.254045,8.611283,4.268790,26.111689,5.440946,3.857229,0.427699,9.142997,14.722845,29.394581,8064.000000,0.000000,4.000000,,,,0.000000,4.000000,4.000000,4.000000,4.000000,4.000000,4.000000,4.000000,4.000000,4.000000,4.000000,4.000000,4.000000,4.000000,4.000000,4.000000,4.000000,4.000000,4.000000,4.000000,4.000000,4.000000,4.000000,4.000000,4.000000,4.000000,4.000000,4.000000,4.000000,4.000000,4.000000,4.000000,4.000000,100.000000
1614561297.906890,33.000000,0.000000,1.033235,6.521873,17.463251,-2.856917,3.109878,-3.239033,-10.750605,-7.094558,15.502691,-0.723458,-2.852257,-0.442638,-8.827083,-4.752233,5.593708,4.763188,-5.872780,11.190290,23.021839,11.286608,-5.516905,-9.444898,5.248791,14.756518,9.392727,29.675322,11.076530,4.879013,2.478554,11.697956,16.759405,25.775442,8064.000000,0.000000,4.000000,,,,0.000000,4.000000,4.000000,4.000000,4.000000,4.000000,4.000000,4.000000,4.000000,4.000000,4.000000,4.000000,4.000000,4.000000,4.000000,4.000000,4.000000,4.000000,4.000000,4.000000,4.000000,4.000000,4.000000,4.000000,4.000000,4.000000,4.000000,4.000000,4.000000,4.000000,4.000000,4.000000,4.000000,100.000000
1614561297.914740,34.000000,0.000000,1.032202,9.592275,13.856044,-5.930983,4.645229,-3.235794,-9.714213,-7.087464,13.948728,1.841368,8.945468,-0.955016,-4.202871,-2.183378,10.203498,12.963553,-4.328446,22.461151,28.639843,14.352243,-0.383183,-6.358530,8.320465,22.946890,14.511539,21.953339,13.629557,8.463878,4.014536,12.711900,18.793926,24.211205,8064.000000,0.000000,4.000000,,,,0.000000,4.000000,4.000000,4.000000,4.000000,4.000000,4.000000,4.000000,4.000000,4.000000,4.000000,4.000000,4.000000,4.000000,4.000000,4.000000,4.000000,4.000000,4.000000,4.000000,4.000000,4.000000,4.000000,4.000000,4.000000,4.000000,4.000000,4.000000,4.000000,4.000000,4.000000,4.000000,4.000000,100.000000
1614561297.922489,35.000000,0.000000,1.031170,9.069861,16.919111,1.254435,5.153405,-3.232558,-10.217319,-8.106017,15.986061,1.839527,11.500625,-0.441240,-1.121745,-1.155554,11.218936,14.489051,-2.272835,25.002792,12.713767,8.696866,2.181303,-5.326530,12.927529,19.847021,15.522669,27.059589,17.205671,11.532337,3.497702,17.314571,18.775133,34.443405,8064.000000,0.000000,4.000000,,,,0.000000,4.000000,4.000000,4.000000,4.000000,4.000000,4.000000,4.000000,4.000000,4.000000,4.000000,4.000000,4.000000,4.000000,4.000000,4.000000,4.000000,4.000000,4.000000,4.000000,4.000000,4.000000,4.000000,4.000000,4.000000,4.000000,4.000000,4.000000,4.000000,4.000000,4.000000,4.000000,4.000000,100.000000
1614561297.930338,36.000000,0.000000,1.030139,11.112074,29.209885,17.150616,12.327739,-3.229325,-10.207102,-7.585091,22.636742,1.837687,8.925021,0.072022,-2.146265,-1.667219,5.053871,9.346356,-2.270562,16.259842,-4.222023,2.021502,-1.410622,-2.757101,13.427423,10.596404,15.507146,35.750481,20.265388,12.033626,3.494204,21.912642,21.833281,41.075626,8192.000000,0.000000,4.000000,,,,0.000000,4.000000,4.000000,4.000000,4.000000,4.000000,4.000000,4.000000,4.000000,4.000000,4.000000,4.000000,4.000000,4.000000,4.000000,4.000000,4.000000,4.000000,4.000000,4.000000,4.000000,4.000000,4.000000,4.000000,4.000000,4.000000,4.000000,4.000000,4.000000,4.000000,4.000000,4.000000,4.000000,100.000000
1614561297.938088,37.000000,0.000000,0.516288,13.665064,25.078110,10.466799,9.751308,-3.226096,-10.196895,-6.551865,19.537182,-1.241073,7.377635,-3.517794,-1.118477,-2.691193,-6.233234,7.285728,-2.781112,7.012812,-5.243442,2.019481,-2.434852,0.835399,12.901175,8.021705,15.491639,29.048061,20.757942,12.021591,6.054812,23.942011,25.401192,31.803782,8064.000000,0.000000,4.000000,,,,0.000000,4.000000,4.000000,4.000000,4.000000,4.000000,4.000000,4.000000,4.000000,4.000000,4.000000,4.000000,4.000000,4.000000,4.000000,4.000000,4.000000,4.000000,4.000000,4.000000,4.000000,4.000000,4.000000,4.000000,4.000000,4.000000,4.000000,4.000000,4.000000,4.000000,4.000000,4.000000,4.000000,100.000000
1614561297.945937,38.000000,0.000000,1.028592,11.600117,-0.587993,-16.723154,-6.155879,-3.222870,-9.673878,-13.211980,4.133029,-8.419319,6.857437,-8.642481,-1.630179,-1.150040,-14.432129,6.765622,-2.265511,4.954517,-6.263840,3.043103,-1.406776,1.860205,13.913915,7.500863,12.912045,15.685680,20.224365,9.445467,7.587219,23.405249,23.837328,19.464287,8064.000000,0.000000,4.000000,,,,0.000000,4.000000,4.000000,4.000000,4.000000,4.000000,4.000000,4.000000,4.000000,4.000000,4.000000,4.000000,4.000000,4.000000,4.000000,4.000000,4.000000,4.000000,4.000000,4.000000,4.000000,4.000000,4.000000,4.000000,4.000000,4.000000,4.000000,4.000000,4.000000,4.000000,4.000000,4.000000,4.000000,100.000000
1614561297.953686,39.000000,0.000000,3.078846,8.511594,-12.895098,-21.834637,-9.226646,-3.219647,-7.100101,-21.403896,-2.024950,-9.436541,6.337759,-7.608198,-2.141370,3.466495,-12.879235,8.297318,-2.776066,8.539307,-5.744755,0.988777,-2.943831,2.883986,9.797437,8.006183,10.335030,10.028970,17.127216,4.820637,7.066811,19.279280,17.146824,15.342257,8064.000000,0.000000,4.000000,,,,0.000000,4.000000,4.000000,4.000000,4.000000,4.000000,4.000000,4.000000,4.000000,4.000000,4.000000,4.000000,4.000000,4.000000,4.000000,4.000000,4.000000,4.000000,4.000000,4.000000,4.000000,4.000000,4.000000,4.000000,4.000000,4.000000,4.000000,4.000000,4.000000,4.000000,4.000000,4.000000,4.000000,100.000000
1614561297.961535,40.000000,0.000000,5.127049,7.990262,-2.625792,-4.376905,2.577452,-3.216427,-5.554539,-17.792747,5.669383,-7.375823,8.895524,-3.498025,4.014618,5.514310,-1.071485,18.545431,-2.260469,13.146152,8.107143,2.526250,-1.915246,5.445204,2.608152,14.664843,10.837516,10.531761,12.494705,3.790176,7.059744,15.670257,13.027114,14.301274,8064.000000,0.000000,4.000000,,,,0.000000,4.000000,4.000000,4.000000,4.000000,4.000000,4.000000,4.000000,4.000000,4.000000,4.000000,4.000000,4.000000,4.000000,4.000000,4.000000,4.000000,4.000000,4.000000,4.000000,4.000000,4.000000,4.000000,4.000000,4.000000,4.000000,4.000000,4.000000,4.000000,4.000000,4.000000,4.000000,4.000000,100.000000
1614561297.969285,41.000000,0.000000,4.609101,8.495092,5.069141,1.268498,6.164618,-3.726032,-6.061805,-9.057007,10.791918,-7.368447,10.937910,-0.417604,9.651629,6.534437,14.827023,26.732014,-2.771029,16.209929,17.842627,9.190391,5.266156,4.926939,1.067082,18.752743,11.339499,11.034050,11.969390,4.299206,7.052685,15.141766,14.552548,12.235691,8064.000000,0.000000,4.000000,,,,0.000000,4.000000,4.000000,4.000000,4.000000,4.000000,4.000000,4.000000,4.000000,4.000000,4.000000,4.000000,4.000000,4.000000,4.000000,4.000000,4.000000,4.000000,4.000000,4.000000,4.000000,4.000000,4.000000,4.000000,4.000000,4.000000,4.000000,4.000000,4.000000,4.000000,4.000000,4.000000,4.000000,100.000000
1614561297.977134,42.000000,0.000000,4.604492,8.486597,2.499969,-2.835335,3.081531,-3.209485,-6.055744,-7.509489,9.755486,0.331230,8.362869,5.736660,9.129157,13.707390,24.042965,25.679640,-3.793899,16.193718,16.799143,12.770944,8.850634,5.947653,1.066015,18.733990,9.789698,9.484554,11.957420,3.782086,7.045632,15.126624,16.076458,12.223455,8192.000000,0.000000,4.000000,,,,0.000000,4.000000,4.000000,4.000000,4.000000,4.000000,4.000000,4.000000,4.000000,4.000000,4.000000,4.000000,4.000000,4.000000,4.000000,4.000000,4.000000,4.000000,4.000000,4.000000,4.000000,4.000000,4.000000,4.000000,4.000000,4.000000,4.000000,4.000000,4.000000,4.000000,4.000000,4.000000,4.000000,100.000000
1614561297.984883,43.000000,0.000000,4.599888,7.965290,3.010290,-0.781217,5.129731,-1.154993,-6.049688,-8.014799,9.232909,13.664231,12.457071,14.448872,12.196951,21.385990,28.634306,27.192423,1.850920,16.177525,26.525932,18.912020,10.380244,7.992987,2.603410,25.381922,11.831190,10.500710,11.945463,6.342407,7.038586,15.624318,17.598843,14.775334,8064.000000,0.000000,4.000000,,,,0.000000,4.000000,4.000000,4.000000,4.000000,4.000000,4.000000,4.000000,4.000000,4.000000,4.000000,4.000000,4.000000,4.000000,4.000000,4.000000,4.000000,4.000000,4.000000,4.000000,4.000000,4.000000,4.000000,4.000000,4.000000,4.000000,4.000000,4.000000,4.000000,4.000000,4.000000,4.000000,4.000000,100.000000
1614561297.992732,44.000000,0.000000,4.595288,8.982965,4.545741,3.322128,8.714345,0.897444,-6.043638,-4.929862,10.762137,18.265951,27.316408,18.024166,19.364241,21.877424,38.349262,33.831898,12.618300,17.186989,45.986588,30.687979,14.472428,8.497814,12.344397,35.612949,18.486025,13.567133,15.010441,10.438628,7.031548,20.224079,20.658167,20.401585,8064.000000,0.000000,4.000000,,,,0.000000,4.000000,4.000000,4.000000,4.000000,4.000000,4.000000,4.000000,4.000000,4.000000,4.000000,4.000000,4.000000,4.000000,4.000000,4.000000,4.000000,4.000000,4.000000,4.000000,4.000000,4.000000,4.000000,4.000000,4.000000,4.000000,4.000000,4.000000,4.000000,4.000000,4.000000,4.000000,4.000000,100.000000
1614561298.000482,45.000000,0.000000,4.590693,11.538085,4.541195,3.318806,9.218451,0.383726,-6.037594,-2.873650,10.238555,15.170763,33.442940,18.006142,20.370518,21.342726,43.951939,35.336525,17.221067,16.144161,48.504704,33.734215,18.047699,13.104701,23.101284,38.654259,23.595745,14.579206,19.610815,11.966651,7.024516,23.793598,24.740072,23.970926,8192.000000,0.000000,4.000000,,,,0.000000,4.000000,4.000000,4.000000,4.000000,4.000000,4.000000,4.000000,4.000000,4.000000,4.000000,4.000000,4.000000,4.000000,4.000000,4.000000,4.000000,4.000000,4.000000,4.000000,4.000000,4.000000,4.000000,4.000000,4.000000,4.000000,4.000000,4.000000,4.000000,4.000000,4.000000,4.000000,4.000000,100.000000
1614561298.008331,46.000000,0.000000,4.586102,12.039368,4.023834,3.315487,8.183592,0.383342,-6.544377,-3.383596,10.228316,13.617130,29.819752,19.526598,17.273224,20.808563,32.625935,31.711447,15.665384,16.128016,41.789532,27.033813,16.491190,19.758263,25.642284,37.589966,22.546507,15.590268,20.104025,11.441864,7.017492,22.744164,26.253794,24.459776,8064.000000,0.000000,4.000000,,,,0.000000,4.000000,4.000000,4.000000,4.000000,4.000000,4.000000,4.000000,4.000000,4.000000,4.000000,4.000000,4.000000,4.000000,4.000000,4.000000,4.000000,4.000000,4.000000,4.000000,4.000000,4.000000,4.000000,4.000000,4.000000,4.000000,4.000000,4.000000,4.000000,4.000000,4.000000,4.000000,4.000000,100.000000
1614561298.016080,47.000000,0.000000,4.581516,12.027328,4.019810,5.876274,8.175408,0.382959,-6.025012,-3.893033,10.218088,13.090693,30.302753,18.481430,16.743130,21.300575,20.798437,32.192554,17.188181,17.137529,41.234921,26.493959,15.961879,20.764147,25.103821,38.065197,22.011141,18.138781,19.571100,11.430423,7.010474,22.721418,24.689079,25.460958,8064.000000,0.000000,4.000000,,,,0.000000,4.000000,4.000000,4.000000,4.000000,4.000000,4.000000,4.000000,4.000000,4.000000,4.000000,4.000000,4.000000,4.000000,4.000000,4.000000,4.000000,4.000000,4.000000,4.000000,4.000000,4.000000,4.000000,4.000000,4.000000,4.000000,4.000000,4.000000,4.000000,4.000000,4.000000,4.000000,4.000000,100.000000
1614561298.023730,48.000000,0.000000,4.576934,12.528122,4.015790,7.921680,8.680054,0.382576,-3.454885,-3.889140,10.207870,11.539141,24.118605,16.411667,17.752028,21.792095,22.828920,27.544979,16.145351,13.530648,31.962917,22.877722,16.458736,21.256203,22.514616,30.847643,23.527592,15.556540,20.577169,11.418992,7.003464,24.237160,26.202850,23.384214,8064.000000,0.000000,4.000000,,,,0.000000,4.000000,4.000000,4.000000,4.000000,4.000000,4.000000,4.000000,4.000000,4.000000,4.000000,4.000000,4.000000,4.000000,4.000000,4.000000,4.000000,4.000000,4.000000,4.000000,4.000000,4.000000,4.000000,4.000000,4.000000,4.000000,4.000000,4.000000,4.000000,4.000000,4.000000,4.000000,4.000000,100.000000
1614561298.031479,49.000000,0.000000,4.572358,9.951490,4.011775,4.836835,6.620091,0.382193,-2.425789,-3.885251,10.197662,8.963499,2.556024,15.882434,17.734276,12.539534,14.600964,8.030253,4.847154,7.363271,9.879672,6.957407,9.262792,19.183664,19.927998,15.945001,18.888680,9.899958,18.505310,11.407573,6.996460,20.623178,25.663828,14.130061,8064.000000,0.000000,4.000000,,,,0.000000,4.000000,4.000000,4.000000,4.000000,4.000000,4.000000,4.000000,4.000000,4.000000,4.000000,4.000000,4.000000,4.000000,4.000000,4.000000,4.000000,4.000000,4.000000,4.000000,4.000000,4.000000,4.000000,4.000000,4.000000,4.000000,4.000000,4.000000,4.000000,4.000000,4.000000,4.000000,4.000000,100.000000
1614561298.039128,50.000000,0.000000,4.567785,5.326155,4.007762,-0.296207,2.510907,0.381811,-2.423363,-3.881366,10.187465,6.903254,-10.779866,7.661424,11.562696,-1.831980,-10.029021,-8.388033,-3.875642,3.766165,-0.899439,-4.844422,-2.028523,5.831147,16.831146,5.159825,11.690303,7.325955,11.820139,11.396166,7.502285,13.423068,18.458677,8.474906,8064.000000,0.000000,4.000000,,,,0.000000,4.000000,4.000000,4.000000,4.000000,4.000000,4.000000,4.000000,4.000000,4.000000,4.000000,4.000000,4.000000,4.000000,4.000000,4.000000,4.000000,4.000000,4.000000,4.000000,4.000000,4.000000,4.000000,4.000000,4.000000,4.000000,4.000000,4.000000,4.000000,4.000000,4.000000,4.000000,4.000000,100.000000
1614561298.046878,51.000000,0.000000,4.563217,4.295187,4.003755,-1.321552,0.457114,0.381429,-2.420940,-3.877485,10.177278,2.793786,-9.743444,-7.730853,0.781902,-7.471174,-22.839506,-8.892466,-3.871766,4.788039,1.665563,-7.403680,-7.667520,-6.482376,6.045085,3.103383,10.140151,7.318629,7.705755,11.384769,5.443500,10.332722,13.312013,9.492072,8064.000000,0.000000,4.000000,,,,0.000000,4.000000,4.000000,4.000000,4.000000,4.000000,4.000000,4.000000,4.000000,4.000000,4.000000,4.000000,4.000000,4.000000,4.000000,4.000000,4.000000,4.000000,4.000000,4.000000,4.000000,4.000000,4.000000,4.000000,4.000000,4.000000,4.000000,4.000000,4.000000,4.000000,4.000000,4.000000,4.000000,100.000000
1614561298.054527,52.000000,0.000000,4.558654,4.803713,3.999751,-0.807410,0.969477,0.381048,-2.931340,-3.873607,10.167100,-2.337213,-8.708060,-13.876968,-2.808623,-5.925241,-21.791025,-9.396394,-2.329433,4.783251,1.151077,-12.524482,-6.121391,-6.475894,-7.294293,2.587459,11.155652,7.311310,8.210870,11.373384,3.386775,11.860850,13.298701,8.969759,8064.000000,0.000000,4.000000,,,,0.000000,4.000000,4.000000,4.000000,4.000000,4.000000,4.000000,4.000000,4.000000,4.000000,4.000000,4.000000,4.000000,4.000000,4.000000,4.000000,4.000000,4.000000,4.000000,4.000000,4.000000,4.000000,4.000000,4.000000,4.000000,4.000000,4.000000,4.000000,4.000000,4.000000,4.000000,4.000000,4.000000,100.000000
1614561298.062276,53.000000,0.000000,4.554095,4.798909,3.482931,-1.319423,0.968508,0.380667,-2.415588,-3.869734,10.156933,-2.847696,-9.212173,-11.811810,-2.292994,-5.919316,-19.717953,-9.386997,-3.865565,3.752827,1.149926,-9.435034,-6.628090,-6.469418,-11.389563,3.097692,9.606035,6.791178,7.689838,11.362011,2.870567,11.336169,13.285402,9.986430,8064.000000,0.000000,4.000000,,,,0.000000,4.000000,4.000000,4.000000,4.000000,4.000000,4.000000,4.000000,4.000000,4.000000,4.000000,4.000000,4.000000,4.000000,4.000000,4.000000,4.000000,4.000000,4.000000,4.000000,4.000000,4.000000,4.000000,4.000000,4.000000,4.000000,4.000000,4.000000,4.000000,4.000000,4.000000,4.000000,4.000000,100.000000
1614561298.069926,54.000000,0.000000,4.549541,3.768469,3.479448,-1.318103,0.454719,0.380286,1.176572,-3.865864,10.146776,-0.793566,-5.613217,-13.338459,-2.290701,-3.349294,-8.929003,2.930082,-3.348879,5.287536,10.892366,9.548760,-5.083000,-6.975769,-9.839712,9.248441,12.673352,7.297208,7.682148,11.350649,3.380517,11.324833,14.810578,17.155931,8064.000000,0.000000,4.000000,,,,0.000000,4.000000,4.000000,4.000000,4.000000,4.000000,4.000000,4.000000,4.000000,4.000000,4.000000,4.000000,4.000000,4.000000,4.000000,4.000000,4.000000,4.000000,4.000000,4.000000,4.000000,4.000000,4.000000,4.000000,4.000000,4.000000,4.000000,4.000000,4.000000,4.000000,4.000000,4.000000,4.000000,100.000000
1614561298.077675,55.000000,0.000000,4.544992,4.790342,3.988789,-1.316785,0.967085,0.379906,5.277959,-3.861998,10.136629,1.258509,3.623165,-9.222557,5.403897,6.397645,8.515823,13.696383,1.269855,10.923274,19.599422,21.846903,5.178493,1.749156,-5.727308,14.880219,19.840166,7.289910,12.802671,11.339298,3.377136,11.313508,19.923973,21.754160,8192.000000,0.000000,4.000000,,,,0.000000,4.000000,4.000000,4.000000,4.000000,4.000000,4.000000,4.000000,4.000000,4.000000,4.000000,4.000000,4.000000,4.000000,4.000000,4.000000,4.000000,4.000000,4.000000,4.000000,4.000000,4.000000,4.000000,4.000000,4.000000,4.000000,4.000000,4.000000,4.000000,4.000000,4.000000,4.000000,4.000000,100.000000
1614561298.085325,56.000000,0.000000,4.540447,4.785552,3.471980,-1.315469,0.966118,0.379526,5.272681,-4.370956,10.126493,2.795712,18.491337,5.145640,16.167725,16.647657,20.815001,18.810892,6.909611,20.143120,23.169567,21.312237,12.865623,8.926893,1.457906,19.993544,22.897249,7.282620,15.353971,11.327959,3.373760,10.789374,21.442511,20.193945,8064.000000,0.000000,4.000000,,,,0.000000,4.000000,4.000000,4.000000,4.000000,4.000000,4.000000,4.000000,4.000000,4.000000,4.000000,4.000000,4.000000,4.000000,4.000000,4.000000,4.000000,4.000000,4.000000,4.000000,4.000000,4.000000,4.000000,4.000000,4.000000,4.000000,4.000000,4.000000,4.000000,4.000000,4.000000,4.000000,4.000000,100.000000
1614561298.093074,57.000000,0.000000,4.535906,3.755125,3.468508,3.301232,0.965152,0.379146,3.216126,-3.853765,10.116366,4.844199,30.267717,14.884085,17.690018,23.297676,32.076237,33.663876,11.005265,29.353746,25.710499,23.855026,12.852757,8.917967,5.559012,29.717138,21.848711,7.275338,16.877079,11.316631,3.370386,13.342688,22.446709,20.173750,8064.000000,0.000000,4.000000,,,,0.000000,4.000000,4.000000,4.000000,4.000000,4.000000,4.000000,4.000000,4.000000,4.000000,4.000000,4.000000,4.000000,4.000000,4.000000,4.000000,4.000000,4.000000,4.000000,4.000000,4.000000,4.000000,4.000000,4.000000,4.000000,4.000000,4.000000,4.000000,4.000000,4.000000,4.000000,4.000000,4.000000,100.000000
1614561298.100723,58.000000,0.000000,4.531371,6.828293,8.080423,9.451777,0.964186,0.378767,7.315475,-1.798629,10.106250,5.352175,34.340015,14.869200,16.646687,28.402584,41.787750,47.476364,14.584003,35.991058,28.761711,29.985018,13.352724,14.037253,6.579094,38.405373,22.852503,7.268063,22.501226,11.818135,3.367015,17.944729,27.039646,23.230499,8192.000000,0.000000,4.000000,,,,0.000000,4.000000,4.000000,4.000000,4.000000,4.000000,4.000000,4.000000,4.000000,4.000000,4.000000,4.000000,4.000000,4.000000,4.000000,4.000000,4.000000,4.000000,4.000000,4.000000,4.000000,4.000000,4.000000,4.000000,4.000000,4.000000,4.000000,4.000000,4.000000,4.000000,4.000000,4.000000,4.000000,100.000000
1614561298.108473,59.000000,0.000000,4.526839,11.436850,10.636446,10.980786,0.963222,0.378388,16.538929,0.254452,10.096144,5.346823,33.792854,14.341511,19.706963,28.887003,40.720322,43.326324,17.133522,34.929428,29.758591,30.467854,16.929115,19.664242,10.162259,38.879787,21.804008,7.260795,24.017187,12.319138,3.363648,19.465246,28.038248,24.232910,8192.000000,0.000000,4.000000,,,,0.000000,4.000000,4.000000,4.000000,4.000000,4.000000,4.000000,4.000000,4.000000,4.000000,4.000000,4.000000,4.000000,4.000000,4.000000,4.000000,4.000000,4.000000,4.000000,4.000000,4.000000,4.000000,4.000000,4.000000,4.000000,4.000000,4.000000,4.000000,4.000000,4.000000,4.000000,4.000000,4.000000,100.000000
1614561298.116122,60.000000,0.000000,4.522312,9.374130,8.574528,9.944164,0.962259,0.378010,20.624954,0.254197,10.086047,4.828656,30.169317,14.839990,21.225718,27.832474,36.064217,33.026588,17.116388,29.766293,27.164730,26.334822,16.399366,16.054834,9.126455,36.789623,18.192461,7.253534,14.249580,10.768356,3.360285,18.932961,24.933287,24.208677,8064.000000,0.000000,4.000000,,,,0.000000,4.000000,4.000000,4.000000,4.000000,4.000000,4.000000,4.000000,4.000000,4.000000,4.000000,4.000000,4.000000,4.000000,4.000000,4.000000,4.000000,4.000000,4.000000,4.000000,4.000000,4.000000,4.000000,4.000000,4.000000,4.000000,4.000000,4.000000,4.000000,4.000000,4.000000,4.000000,4.000000,100.000000
1614561298.123871,61.000000,0.000000,4.517790,7.826294,6.514671,10.447041,0.961297,0.377632,16.501764,0.253943,10.075961,5.336648,27.575045,15.337970,20.691671,29.343103,32.951229,27.865356,15.560810,28.710884,24.060642,23.231564,16.895786,12.449036,6.553227,38.291298,18.687090,7.246280,8.081485,11.783230,3.356924,18.914028,24.908354,23.671648,8064.000000,0.000000,4.000000,,,,0.000000,4.000000,4.000000,4.000000,4.000000,4.000000,4.000000,4.000000,4.000000,4.000000,4.000000,4.000000,4.000000,4.000000,4.000000,4.000000,4.000000,4.000000,4.000000,4.000000,4.000000,4.000000,4.000000,4.000000,4.000000,4.000000,4.000000,4.000000,4.000000,4.000000,4.000000,4.000000,4.000000,100.000000
1614561298.131521,62.000000,0.000000,5.026093,9.869750,7.533797,10.436594,0.960335,0.890075,13.921160,0.253689,10.065886,5.331311,22.419266,13.784170,20.158159,25.211197,22.149046,22.196466,17.083712,26.630892,21.472479,18.080126,16.878891,12.436587,6.546673,38.765823,18.668402,7.239034,8.586224,12.284266,3.353567,19.407934,25.396265,24.160797,8064.000000,0.000000,4.000000,,,,0.000000,4.000000,4.000000,4.000000,4.000000,4.000000,4.000000,4.000000,4.000000,4.000000,4.000000,4.000000,4.000000,4.000000,4.000000,4.000000,4.000000,4.000000,4.000000,4.000000,4.000000,4.000000,4.000000,4.000000,4.000000,4.000000,4.000000,4.000000,4.000000,4.000000,4.000000,4.000000,4.000000,100.000000
1614561298.139370,63.000000,0.000000,5.021067,4.731676,7.526263,9.400517,0.959375,0.376364,13.394419,-0.772206,10.055820,1.736236,10.089153,7.103720,16.035437,8.775728,6.229462,12.430679,16.040987,14.296569,15.297160,4.728714,7.631243,8.321587,2.437563,30.009111,12.495888,7.231795,3.962253,4.066854,3.350214,19.388527,24.858049,24.136637,8064.000000,0.000000,4.000000,,,,0.000000,4.000000,4.000000,4.000000,4.000000,4.000000,4.000000,4.000000,4.000000,4.000000,4.000000,4.000000,4.000000,4.000000,4.000000,4.000000,4.000000,4.000000,4.000000,4.000000,4.000000,4.000000,4.000000,4.000000,4.000000,4.000000,4.000000,4.000000,4.000000,4.000000,4.000000,4.000000,4.000000,100.000000
1614561298.147119,64.000000,0.000000,4.503225,-1.939723,7.005917,4.262910,1.471236,0.375988,7.739998,-4.361177,10.045764,-4.419347,-0.177346,-0.082871,10.378376,-3.027919,-0.443434,3.700300,5.255715,3.513041,7.589556,-8.609348,-4.684081,4.723521,-8.334105,14.081666,6.329546,7.737384,-1.682735,-7.219264,3.346864,18.856318,24.833191,23.599678,0.000000,219.000000,4.000000,,,,0.000000,4.000000,4.000000,4.000000,4.000000,4.000000,4.000000,4.000000,4.000000,4.000000,4.000000,4.000000,4.000000,4.000000,4.000000,4.000000,4.000000,4.000000,4.000000,4.000000,4.000000,4.000000,4.000000,4.000000,4.000000,4.000000,4.000000,4.000000,4.000000,4.000000,4.000000,4.000000,4.000000,100.000000
1614561298.154969,65.000000,0.000000,5.011542,5.754525,7.511731,0.156083,0.956945,0.888432,1.578412,-8.459380,10.035718,-6.466209,-1.715630,-2.134070,9.342357,-2.512071,2.121112,3.183779,-6.031592,4.535170,5.530684,-10.139201,-7.243499,5.231618,-13.966797,6.375277,6.836037,9.780929,-0.655411,-7.724865,3.856337,18.837461,23.782717,24.601721,0.000000,186.000000,4.000000,,,,0.000000,4.000000,4.000000,4.000000,4.000000,4.000000,4.000000,4.000000,4.000000,4.000000,4.000000,4.000000,4.000000,4.000000,4.000000,4.000000,4.000000,4.000000,4.000000,4.000000,4.000000,4.000000,4.000000,4.000000,4.000000,4.000000,4.000000,4.000000,4.000000,4.000000,4.000000,4.000000,4.000000,100.000000
1614561298.162718,66.000000,0.000000,5.006531,14.466719,8.017040,-1.382534,0.955988,-0.138097,-0.474448,-11.015023,10.538503,-5.946923,-1.713915,-4.183218,7.794553,-1.996738,2.118990,2.667775,-7.564022,4.530634,4.499512,-7.564959,-6.210615,4.200746,-12.927189,7.394542,8.367662,11.822430,1.909347,-3.614576,3.339660,19.844265,21.707651,24.577118,0.000000,191.000000,4.000000,,,,0.000000,4.000000,4.000000,4.000000,4.000000,4.000000,4.000000,4.000000,4.000000,4.000000,4.000000,4.000000,4.000000,4.000000,4.000000,4.000000,4.000000,4.000000,4.000000,4.000000,4.000000,4.000000,4.000000,4.000000,4.000000,4.000000,4.000000,4.000000,4.000000,4.000000,4.000000,4.000000,4.000000,100.000000
1614561298.170567,67.000000,0.000000,-0.126681,7.785585,6.983382,-0.868331,1.980673,-3.727703,-2.012435,-11.004008,8.989503,-5.940976,-1.199380,-4.691856,1.632912,-1.994741,0.065589,2.152287,-6.017997,5.038924,6.033474,-10.634317,-5.691584,1.632442,-13.427083,7.387147,7.333653,10.784966,0.881797,-3.098141,1.285039,17.773138,19.121841,21.475618,0.000000,219.000000,4.000000,,,,0.000000,4.000000,4.000000,4.000000,4.000000,4.000000,4.000000,4.000000,4.000000,4.000000,4.000000,4.000000,4.000000,4.000000,4.000000,4.000000,4.000000,4.000000,4.000000,4.000000,4.000000,4.000000,4.000000,4.000000,4.000000,4.000000,4.000000,4.000000,4.000000,4.000000,4.000000,4.000000,4.000000,100.000000
1614561298.178316,68.000000,0.000000,-6.280400,0.598313,8.002040,-0.354642,-1.098231,-7.313718,-3.036064,-10.993004,6.929231,-6.447855,8.032588,0.953862,-2.471285,2.622638,3.655267,12.919366,-6.524799,15.290296,17.309492,-6.008298,-2.096148,1.117989,-12.388015,7.379760,6.300679,8.210078,0.880915,-3.607863,-0.254708,10.575878,17.051437,20.428501,0.000000,200.000000,4.000000,,,,0.000000,4.000000,4.000000,4.000000,4.000000,4.000000,4.000000,4.000000,4.000000,4.000000,4.000000,4.000000,4.000000,4.000000,4.000000,4.000000,4.000000,4.000000,4.000000,4.000000,4.000000,4.000000,4.000000,4.000000,4.000000,4.000000,4.000000,4.000000,4.000000,4.000000,4.000000,4.000000,4.000000,100.000000
1614561298.186166,69.000000,0.000000,-7.299761,1.623355,8.506858,-1.892749,-5.712518,-6.793584,-3.033028,-10.982011,5.383840,-5.928587,14.178402,3.517010,-1.955993,7.235400,11.343920,24.188498,-7.031095,19.377569,24.984491,5.279761,2.008512,1.629692,-7.247421,7.885201,8.345660,7.689048,1.392854,-3.091435,-0.767274,6.975558,18.060028,20.408073,0.000000,173.000000,4.000000,,,,0.000000,4.000000,4.000000,4.000000,4.000000,4.000000,4.000000,4.000000,4.000000,4.000000,4.000000,4.000000,4.000000,4.000000,4.000000,4.000000,4.000000,4.000000,4.000000,4.000000,4.000000,4.000000,4.000000,4.000000,4.000000,4.000000,4.000000,4.000000,4.000000,4.000000,4.000000,4.000000,4.000000,100.000000
1614561298.193915,70.000000,0.000000,-6.266820,-0.429550,2.857326,-8.044703,-6.732446,-6.273970,-2.517174,-10.458209,2.301533,-5.922658,10.061660,3.000673,-1.441216,6.715344,14.409499,20.061745,-5.998423,8.588961,17.267199,4.761661,2.006503,1.628062,-4.163251,7.364495,7.311674,6.655718,1.391461,-3.088344,-0.253686,7.994224,15.990685,13.720999,0.000000,192.000000,4.000000,,,,0.000000,4.000000,4.000000,4.000000,4.000000,4.000000,4.000000,4.000000,4.000000,4.000000,4.000000,4.000000,4.000000,4.000000,4.000000,4.000000,4.000000,4.000000,4.000000,4.000000,4.000000,4.000000,4.000000,4.000000,4.000000,4.000000,4.000000,4.000000,4.000000,4.000000,4.000000,4.000000,4.000000,100.000000
1614561298.201764,71.000000,0.000000,-6.773374,-6.070146,-5.863481,-14.703324,-6.212893,-9.857440,-2.514657,-11.986212,-0.777691,-5.916736,6.974675,3.510493,-1.952596,3.631706,13.882269,14.913478,-5.992424,0.375244,9.557623,-3.448229,2.004497,1.626434,-5.184729,8.382771,-1.926407,0.495216,1.390070,-3.085255,-0.253432,6.447768,8.795208,3.963688,0.000000,219.000000,4.000000,,,,0.000000,4.000000,4.000000,4.000000,4.000000,4.000000,4.000000,4.000000,4.000000,4.000000,4.000000,4.000000,4.000000,4.000000,4.000000,4.000000,4.000000,4.000000,4.000000,4.000000,4.000000,4.000000,4.000000,4.000000,4.000000,4.000000,4.000000,4.000000,4.000000,4.000000,4.000000,4.000000,4.000000,100.000000
1614561298.209513,72.000000,0.000000,-6.766601,-7.089717,-8.421720,-15.714262,-6.206680,-13.950147,-1.999322,-14.025508,-1.289734,-5.910819,4.916418,1.968521,-1.437823,3.115253,14.381207,13.360103,-5.986432,-0.137952,9.548066,-4.983242,1.489672,1.624807,-5.179544,8.374390,-8.078327,-4.633484,1.388680,-2.569350,-0.253179,3.364397,2.632566,-0.655661,0.000000,208.000000,4.000000,,,,0.000000,4.000000,4.000000,4.000000,4.000000,4.000000,4.000000,4.000000,4.000000,4.000000,4.000000,4.000000,4.000000,4.000000,4.000000,4.000000,4.000000,4.000000,4.000000,4.000000,4.000000,4.000000,4.000000,4.000000,4.000000,4.000000,4.000000,4.000000,4.000000,4.000000,4.000000,4.000000,4.000000,100.000000
1614561298.217363,73.000000,0.000000,-6.247014,-6.056986,-7.387657,-15.185727,-6.713294,-14.449017,-3.022964,-15.037124,-0.775624,-5.904908,-2.780806,-2.648832,-1.436385,2.599318,9.751441,1.039050,-5.980445,-1.676276,3.384671,-6.003900,-2.614382,1.623183,-4.661544,1.186528,-3.454864,-4.628851,1.387291,-4.105242,-0.252926,3.361033,4.681216,1.396277,0.000000,194.000000,4.000000,,,,0.000000,4.000000,4.000000,4.000000,4.000000,4.000000,4.000000,4.000000,4.000000,4.000000,4.000000,4.000000,4.000000,4.000000,4.000000,4.000000,4.000000,4.000000,4.000000,4.000000,4.000000,4.000000,4.000000,4.000000,4.000000,4.000000,4.000000,4.000000,4.000000,4.000000,4.000000,4.000000,4.000000,100.000000
1614561298.225112,74.000000,0.000000,-6.240767,-6.050930,-6.867449,-15.683362,-6.706581,-13.408927,-6.609684,-14.509266,-0.774848,-5.899003,-8.931871,-5.210286,-1.434948,-2.531487,-0.514720,-12.295321,-5.974465,-3.213061,-4.823842,-11.638922,-6.201511,1.621560,-6.708164,-7.019787,1.163975,-3.598581,1.385904,-6.665239,-0.252673,4.383313,7.240637,10.112829,0.000000,188.000000,4.000000,,,,0.000000,4.000000,4.000000,4.000000,4.000000,4.000000,4.000000,4.000000,4.000000,4.000000,4.000000,4.000000,4.000000,4.000000,4.000000,4.000000,4.000000,4.000000,4.000000,4.000000,4.000000,4.000000,4.000000,4.000000,4.000000,4.000000,4.000000,4.000000,4.000000,4.000000,4.000000,4.000000,4.000000,100.000000
1614561298.232961,75.000000,0.000000,-6.234526,-6.557699,-7.373402,-15.667679,-6.187054,-13.908339,-6.603075,-14.494757,-1.286894,-5.893104,-8.410119,-4.179435,-1.946334,-8.682801,-5.642411,-12.283027,-5.968491,-3.209848,-6.357479,-11.627283,-6.195310,1.619938,-9.265559,-8.038408,-0.888471,-3.594982,1.897339,-7.171394,-0.252420,3.866109,5.182114,18.307844,0.000000,201.000000,4.000000,,,,0.000000,4.000000,4.000000,4.000000,4.000000,4.000000,4.000000,4.000000,4.000000,4.000000,4.000000,4.000000,4.000000,4.000000,4.000000,4.000000,4.000000,4.000000,4.000000,4.000000,4.000000,4.000000,4.000000,4.000000,4.000000,4.000000,4.000000,4.000000,4.000000,4.000000,4.000000,4.000000,4.000000,100.000000
1614561298.240711,76.000000,0.000000,-6.228291,-7.063962,-7.878849,-15.139191,-6.180867,-13.894430,-5.058010,-14.480262,-1.285607,-4.348750,-7.888888,-3.662435,-0.918747,-9.699759,-5.123948,-10.732282,-5.962522,-2.693817,-3.787019,-9.564374,-5.676294,1.618318,-8.743473,-3.927806,-0.374762,-4.104208,1.382621,-6.651402,-0.252168,3.862243,7.741035,15.212614,0.000000,202.000000,4.000000,,,,0.000000,4.000000,4.000000,4.000000,4.000000,4.000000,4.000000,4.000000,4.000000,4.000000,4.000000,4.000000,4.000000,4.000000,4.000000,4.000000,4.000000,4.000000,4.000000,4.000000,4.000000,4.000000,4.000000,4.000000,4.000000,4.000000,4.000000,4.000000,4.000000,4.000000,4.000000,4.000000,4.000000,100.000000
1614561298.248360,77.000000,0.000000,-6.222063,-5.005616,-1.717124,-15.124051,-7.200327,-13.880535,-11.206799,-14.465781,0.254140,-2.293119,-8.393820,-5.197234,-2.456289,-8.664419,-4.606003,-11.747190,-6.469380,5.514005,1.344973,-6.990706,-6.183438,1.616700,-8.221909,1.204327,4.753818,-0.510360,1.381238,-6.644751,-0.251915,6.935304,16.964064,18.787146,0.000000,190.000000,4.000000,,,,0.000000,4.000000,4.000000,4.000000,4.000000,4.000000,4.000000,4.000000,4.000000,4.000000,4.000000,4.000000,4.000000,4.000000,4.000000,4.000000,4.000000,4.000000,4.000000,4.000000,4.000000,4.000000,4.000000,4.000000,4.000000,4.000000,4.000000,4.000000,4.000000,4.000000,4.000000,4.000000,4.000000,100.000000
1614561298.256109,78.000000,0.000000,-6.215841,-0.385226,5.464080,-15.108928,-4.116203,-13.866655,-21.964823,-14.451316,2.305168,-2.290826,-8.385427,-7.243319,-5.530756,-9.168575,-5.114218,-9.684161,-4.924449,13.713619,10.061577,1.734233,-5.664434,1.615083,-10.264969,4.280046,7.825987,9.746560,3.431139,-3.561183,-0.251663,11.030932,22.588125,32.614513,0.000000,205.000000,4.000000,,,,0.000000,4.000000,4.000000,4.000000,4.000000,4.000000,4.000000,4.000000,4.000000,4.000000,4.000000,4.000000,4.000000,4.000000,4.000000,4.000000,4.000000,4.000000,4.000000,4.000000,4.000000,4.000000,4.000000,4.000000,4.000000,4.000000,4.000000,4.000000,4.000000,4.000000,4.000000,4.000000,4.000000,100.000000
1614561298.263759,79.000000,0.000000,-6.209625,2.179262,0.843232,-15.093819,1.016118,-13.852788,-18.353113,-14.436864,3.328504,-2.288535,-7.864220,-8.261717,-4.499584,-8.133765,-5.109104,-7.110375,-2.868243,10.622982,14.666900,6.347883,-3.607488,1.613468,-5.639319,4.788586,8.330982,11.788095,4.453349,0.544942,-0.251412,12.045543,20.514254,30.530615,0.000000,201.000000,4.000000,,,,0.000000,4.000000,4.000000,4.000000,4.000000,4.000000,4.000000,4.000000,4.000000,4.000000,4.000000,4.000000,4.000000,4.000000,4.000000,4.000000,4.000000,4.000000,4.000000,4.000000,4.000000,4.000000,4.000000,4.000000,4.000000,4.000000,4.000000,4.000000,4.000000,4.000000,4.000000,4.000000,4.000000,100.000000
1614561298.271508,80.000000,0.000000,-6.203415,1.151442,-9.414021,-15.078725,-1.549001,-13.838936,-5.514248,-14.422427,2.812355,-2.286246,-7.856356,-7.740634,1.145941,-5.048708,-4.078353,-5.564803,-1.839733,5.484154,13.113771,-1.863593,-1.552598,1.611854,2.058628,4.783798,6.784190,1.519898,1.371972,1.570038,-0.251160,11.520677,15.365535,11.525725,0.000000,194.000000,4.000000,,,,0.000000,4.000000,4.000000,4.000000,4.000000,4.000000,4.000000,4.000000,4.000000,4.000000,4.000000,4.000000,4.000000,4.000000,4.000000,4.000000,4.000000,4.000000,4.000000,4.000000,4.000000,4.000000,4.000000,4.000000,4.000000,4.000000,4.000000,4.000000,4.000000,4.000000,4.000000,4.000000,4.000000,100.000000
1614561298.279157,81.000000,0.000000,-6.197212,1.150290,-11.968710,-15.063646,-6.162836,-13.825097,-0.893349,-14.408005,2.809542,-2.283960,-7.848500,-7.732893,2.683256,-4.530839,-1.510173,-3.507956,-2.350714,5.478670,10.536555,-9.041217,-2.063866,1.610242,-0.507533,4.779014,5.238944,-4.122648,-2.219143,-1.508455,-0.250909,11.509156,13.811707,3.309072,0.000000,187.000000,4.000000,,,,0.000000,4.000000,4.000000,4.000000,4.000000,4.000000,4.000000,4.000000,4.000000,4.000000,4.000000,4.000000,4.000000,4.000000,4.000000,4.000000,4.000000,4.000000,4.000000,4.000000,4.000000,4.000000,4.000000,4.000000,4.000000,4.000000,4.000000,4.000000,4.000000,4.000000,4.000000,4.000000,4.000000,100.000000
1614561298.286907,82.000000,0.000000,-6.191015,1.661961,-11.443921,-16.074223,-2.566930,-13.811272,-2.943738,-14.393597,2.293912,-2.281676,-7.840651,-8.237981,2.167753,-5.039129,-0.483021,-3.504448,-2.348363,0.344986,5.397813,-8.006535,-2.061802,1.608632,-5.122410,4.774235,3.182423,-1.041602,-2.729744,-3.045408,-0.250658,11.497646,13.285076,5.869865,0.000000,173.000000,4.000000,,,,0.000000,4.000000,4.000000,4.000000,4.000000,4.000000,4.000000,4.000000,4.000000,4.000000,4.000000,4.000000,4.000000,4.000000,4.000000,4.000000,4.000000,4.000000,4.000000,4.000000,4.000000,4.000000,4.000000,4.000000,4.000000,4.000000,4.000000,4.000000,4.000000,4.000000,4.000000,4.000000,4.000000,100.000000
1614561298.294556,83.000000,0.000000,-6.184824,1.147478,-11.432477,-15.545328,2.051022,-13.797461,-2.427974,-14.379204,2.291619,-2.279394,-7.832810,-7.716923,2.678406,-4.521269,-0.995359,-3.500944,-2.346015,-8.373307,-0.248610,-7.485707,-2.059740,1.607024,-1.527544,4.256640,3.179240,-2.579022,-2.727015,-2.529542,-0.250408,10.973329,12.246150,4.838354,0.000000,191.000000,4.000000,,,,0.000000,4.000000,4.000000,4.000000,4.000000,4.000000,4.000000,4.000000,4.000000,4.000000,4.000000,4.000000,4.000000,4.000000,4.000000,4.000000,4.000000,4.000000,4.000000,4.000000,4.000000,4.000000,4.000000,4.000000,4.000000,4.000000,4.000000,4.000000,4.000000,4.000000,4.000000,4.000000,4.000000,100.000000
1614561298.302306,84.000000,0.000000,-6.178639,0.633510,-9.882583,-12.965681,1.536150,-13.783663,-0.887084,-14.364824,2.802147,-2.277115,-7.824978,-7.196385,1.137265,-6.568030,-0.994364,-3.497443,-2.343669,-10.416217,-2.299644,-8.503862,-2.570501,1.092596,-4.090119,2.713922,3.176061,-3.089264,-2.724288,-4.065474,-0.250157,11.475176,13.772365,4.320695,0.000000,219.000000,4.000000,,,,0.000000,4.000000,4.000000,4.000000,4.000000,4.000000,4.000000,4.000000,4.000000,4.000000,4.000000,4.000000,4.000000,4.000000,4.000000,4.000000,4.000000,4.000000,4.000000,4.000000,4.000000,4.000000,4.000000,4.000000,4.000000,4.000000,4.000000,4.000000,4.000000,4.000000,4.000000,4.000000,4.000000,100.000000
1614561298.309955,85.000000,0.000000,-6.172460,1.145697,-12.436803,-12.439895,0.508973,-13.769879,-1.911838,-14.350459,1.773704,-2.274838,-7.817153,-8.214829,-1.427974,-12.202488,-0.993369,-4.519586,-2.341326,-11.431441,-1.271703,-8.495358,-2.055110,1.604324,-16.393723,0.659926,3.172885,1.016390,-2.721563,-6.625511,-0.249907,11.463700,15.809875,4.829195,0.000000,183.000000,4.000000,,,,0.000000,4.000000,4.000000,4.000000,4.000000,4.000000,4.000000,4.000000,4.000000,4.000000,4.000000,4.000000,4.000000,4.000000,4.000000,4.000000,4.000000,4.000000,4.000000,4.000000,4.000000,4.000000,4.000000,4.000000,4.000000,4.000000,4.000000,4.000000,4.000000,4.000000,4.000000,4.000000,4.000000,100.000000
1614561298.317704,86.000000,0.000000,-6.166288,3.195834,-10.373084,-10.888993,1.534105,-13.756109,-2.935567,-14.848929,3.823213,-2.785383,-8.322156,-7.693795,-1.939367,-12.703106,-0.992376,-0.925323,-2.338984,-8.855907,-1.783252,-7.974043,-2.053055,1.602720,-20.992712,0.146446,2.656892,3.579476,-2.718842,-7.131706,-0.249657,10.426596,16.819706,6.362827,0.000000,200.000000,4.000000,,,,0.000000,4.000000,4.000000,4.000000,4.000000,4.000000,4.000000,4.000000,4.000000,4.000000,4.000000,4.000000,4.000000,4.000000,4.000000,4.000000,4.000000,4.000000,4.000000,4.000000,4.000000,4.000000,4.000000,4.000000,4.000000,4.000000,4.000000,4.000000,4.000000,4.000000,4.000000,4.000000,4.000000,100.000000
